# Begin of measurement: 22.11.2018 13:09:05
# R-Sample[Ohm]	I-Coil[A]	U-Magnetometer[V]
# Kei2000	HP E3631A +6V : I	Kei2000
1.08211935E+3	4.56817800E-1	2.34295490E+0
1.08243956E+3	4.56914900E-1	2.34294408E+0
1.08275508E+3	4.56872200E-1	2.34295826E+0
1.08302691E+3	4.56837200E-1	2.34292279E+0
1.08328885E+3	4.56891600E-1	2.34295141E+0
1.08397698E+3	4.56926600E-1	2.34293460E+0
1.08404228E+3	4.56879900E-1	2.34292111E+0
1.08431389E+3	4.56984900E-1	2.34293694E+0
1.08465049E+3	4.56813900E-1	2.34292692E+0
1.08491035E+3	4.56833300E-1	2.34289535E+0
1.08515603E+3	4.56856600E-1	2.34289177E+0
1.08538462E+3	4.56856600E-1	2.34288511E+0
1.08556276E+3	4.56852700E-1	2.34290000E+0
1.08570460E+3	4.56981000E-1	2.34287147E+0
1.08579619E+3	4.56872200E-1	2.34291208E+0
1.08587670E+3	4.56977100E-1	2.34283950E+0
1.08590859E+3	4.56981000E-1	2.34287550E+0
1.08589523E+3	4.56922700E-1	2.34289674E+0
1.08583060E+3	4.56809900E-1	2.34289625E+0
1.08575972E+3	4.56813900E-1	2.34289757E+0
1.08563220E+3	4.56837200E-1	2.34289256E+0
1.08546325E+3	4.56953800E-1	2.34286676E+0
1.08524215E+3	4.56949900E-1	2.34289127E+0
1.08500561E+3	4.56798300E-1	2.34286113E+0
1.08466826E+3	4.56798300E-1	2.34289355E+0
1.08437556E+3	4.56790500E-1	2.34286144E+0
1.08397692E+3	4.56813900E-1	2.34287383E+0
1.08357819E+3	4.56977100E-1	2.34287776E+0
1.08307746E+3	4.56825500E-1	2.34285191E+0
1.08262591E+3	4.56934400E-1	2.34283809E+0
1.08205169E+3	4.56953800E-1	2.34281913E+0
1.08150625E+3	4.56778900E-1	2.34283851E+0
1.08083795E+3	4.56946000E-1	2.34288037E+0
1.08016353E+3	4.56813900E-1	2.34284826E+0
1.07940528E+3	4.56844900E-1	2.34284817E+0
1.07870926E+3	4.56852700E-1	2.34287026E+0
1.07708208E+3	4.56775000E-1	2.34289209E+0
1.07700337E+3	4.56961500E-1	2.34286770E+0
1.07609081E+3	4.56848800E-1	2.34286066E+0
1.07515848E+3	4.56817800E-1	2.34289599E+0
1.07432746E+3	4.56841000E-1	2.34288083E+0
1.07323487E+3	4.56802200E-1	2.34283991E+0
1.07219920E+3	4.56755500E-1	2.34284863E+0
1.07114974E+3	4.56848800E-1	2.34288038E+0
1.07015041E+3	4.56813900E-1	2.34289152E+0
1.06888234E+3	4.56813900E-1	2.34287506E+0
1.06780708E+3	4.56833300E-1	2.34279797E+0
1.06653850E+3	4.56782800E-1	2.34283817E+0
1.06537131E+3	4.56872200E-1	2.34286791E+0
1.06383982E+3	4.56848800E-1	2.34283611E+0
1.06262300E+3	4.56809900E-1	2.34281321E+0
1.06131359E+3	4.56934400E-1	2.34283884E+0
1.05976395E+3	4.56961500E-1	2.34285525E+0
1.05839245E+3	4.56802200E-1	2.34287520E+0
1.05686208E+3	4.56825500E-1	2.34287341E+0
1.05536367E+3	4.56973200E-1	2.34282283E+0
1.05385199E+3	4.56771100E-1	2.34284859E+0
1.05078676E+3	4.56930400E-1	2.34285436E+0
1.05051469E+3	4.56957700E-1	2.34288611E+0
1.04905074E+3	4.56856600E-1	2.34286978E+0
1.04747855E+3	4.56918800E-1	2.34289384E+0
1.04603950E+3	4.56930400E-1	2.34287506E+0
1.04445366E+3	4.56786600E-1	2.34285239E+0
1.04305275E+3	4.56992700E-1	2.34286473E+0
1.04157772E+3	4.56930400E-1	2.34284671E+0
1.03832508E+3	4.56794400E-1	2.34285100E+0
1.03805688E+3	4.56981000E-1	2.34289129E+0
1.03650990E+3	4.56778900E-1	2.34286361E+0
1.03486822E+3	4.56969300E-1	2.34287551E+0
1.03301328E+3	4.56790500E-1	2.34285360E+0
1.03103173E+3	4.56821600E-1	2.34287497E+0
1.02865314E+3	4.56981000E-1	2.34289237E+0
1.02628744E+3	4.56988800E-1	2.34288682E+0
1.02430916E+3	4.56763300E-1	2.34291227E+0
1.02175087E+3	4.56837200E-1	2.34287833E+0
1.01991030E+3	4.56829400E-1	2.34287615E+0
1.01787722E+3	4.56918800E-1	2.34288984E+0
1.01593377E+3	4.56802200E-1	2.34288608E+0
1.01381793E+3	4.56806100E-1	2.34290491E+0
1.01153720E+3	4.56907100E-1	2.34294560E+0
1.00945806E+3	4.56825500E-1	2.34293259E+0
1.00712707E+3	4.56973200E-1	2.34291962E+0
1.00504460E+3	4.56973200E-1	2.34291555E+0
1.00298289E+3	4.56821600E-1	2.34293281E+0
1.00125298E+3	4.56809900E-1	2.34292838E+0
9.99205739E+2	4.56949900E-1	2.34296246E+0
9.96165810E+2	4.56794400E-1	2.34294681E+0
9.93799068E+2	4.56736100E-1	2.34295454E+0
9.91556158E+2	4.56833300E-1	2.34295662E+0
9.89621653E+2	4.56965400E-1	2.34294893E+0
9.87249058E+2	4.56771100E-1	2.34293394E+0
9.85252727E+2	4.56942100E-1	2.34299852E+0
9.82686106E+2	4.56957700E-1	2.34299794E+0
9.80024377E+2	4.56930400E-1	2.34304235E+0
9.75937694E+2	4.56806100E-1	2.34302720E+0
9.75525540E+2	4.56911000E-1	2.34303610E+0
9.73610172E+2	4.56965400E-1	2.34301374E+0
9.71816924E+2	4.56825500E-1	2.34300471E+0
9.70114184E+2	4.56809900E-1	2.34302568E+0
9.67418836E+2	4.56973200E-1	2.34306052E+0
9.64410530E+2	4.56903300E-1	2.34306150E+0
9.61145272E+2	4.56778900E-1	2.34305533E+0
9.58392044E+2	4.56864400E-1	2.34307657E+0
9.55025831E+2	4.56907100E-1	2.34310984E+0
9.52325872E+2	4.56771100E-1	2.34312845E+0
9.50530057E+2	4.56953800E-1	2.34311803E+0
9.46283259E+2	4.56802200E-1	2.34315353E+0
9.46032986E+2	4.56961500E-1	2.34310381E+0
9.42901195E+2	4.56957700E-1	2.34309433E+0
9.40476454E+2	4.56790500E-1	2.34312380E+0
9.37433776E+2	4.56938200E-1	2.34310148E+0
9.34324184E+2	4.56946000E-1	2.34310546E+0
9.31931009E+2	4.56864400E-1	2.34315671E+0
9.25461271E+2	4.56802200E-1	2.34314942E+0
9.24693109E+2	4.56926600E-1	2.34315675E+0
9.22587983E+2	4.56747800E-1	2.34314048E+0
9.20721336E+2	4.56837200E-1	2.34314146E+0
9.16407795E+2	4.56949900E-1	2.34317147E+0
9.15550706E+2	4.56767200E-1	2.34317840E+0
9.13763311E+2	4.56930400E-1	2.34314128E+0
9.08890460E+2	4.56907100E-1	2.34319960E+0
9.08337955E+2	4.56895500E-1	2.34317410E+0
9.05492918E+2	4.56911000E-1	2.34322285E+0
9.04344084E+2	4.56743900E-1	2.34322254E+0
8.99957595E+2	4.56771100E-1	2.34325751E+0
8.98883149E+2	4.56934400E-1	2.34328510E+0
8.95731590E+2	4.56837200E-1	2.34330735E+0
8.92733175E+2	4.56930400E-1	2.34336173E+0
8.90754000E+2	4.56782800E-1	2.34335569E+0
8.88976968E+2	4.56712800E-1	2.34336947E+0
8.85627287E+2	4.56938200E-1	2.34338798E+0
8.81054106E+2	4.56775000E-1	2.34345627E+0
8.77788082E+2	4.56747800E-1	2.34354329E+0
8.74278359E+2	4.56771100E-1	2.34362303E+0
8.71187455E+2	4.56767200E-1	2.34368595E+0
8.68744117E+2	4.56755500E-1	2.34377543E+0
8.67560926E+2	4.56755500E-1	2.34380454E+0
8.66170487E+2	4.56778900E-1	2.34383661E+0
8.62587691E+2	4.56767200E-1	2.34390217E+0
8.56642694E+2	4.56809900E-1	2.34396070E+0
8.56231441E+2	4.56883800E-1	2.34406392E+0
8.54837648E+2	4.56965400E-1	2.34408650E+0
8.52096217E+2	4.56802200E-1	2.34418381E+0
8.48755671E+2	4.56856600E-1	2.34426600E+0
8.46643617E+2	4.56813900E-1	2.34430968E+0
8.43624146E+2	4.56790500E-1	2.34439255E+0
8.41995435E+2	4.56883800E-1	2.34445377E+0
8.38823749E+2	4.56957700E-1	2.34450046E+0
8.35868790E+2	4.56891600E-1	2.34461427E+0
8.33039552E+2	4.56856600E-1	2.34472155E+0
8.31174121E+2	4.56969300E-1	2.34483336E+0
8.28626677E+2	4.56786600E-1	2.34496892E+0
8.26102008E+2	4.56786600E-1	2.34499736E+0
8.22488065E+2	4.56841000E-1	2.34512803E+0
8.19716375E+2	4.56860500E-1	2.34529292E+0
8.16548111E+2	4.56938200E-1	2.34542497E+0
8.13739362E+2	4.56809900E-1	2.34561986E+0
8.11039944E+2	4.56856600E-1	2.34584042E+0
8.07548460E+2	4.56872200E-1	2.34610766E+0
8.04743464E+2	4.56817800E-1	2.34643129E+0
8.01838073E+2	4.56778900E-1	2.34668365E+0
7.99754206E+2	4.56856600E-1	2.34698412E+0
7.97578434E+2	4.56798300E-1	2.34724676E+0
7.93445372E+2	4.56876000E-1	2.34764993E+0
7.91045579E+2	4.56957700E-1	2.34819184E+0
7.89923583E+2	4.56852700E-1	2.34874775E+0
7.87845119E+2	4.56786600E-1	2.34913502E+0
7.84453381E+2	4.56926600E-1	2.34989623E+0
7.82331193E+2	4.56837200E-1	2.35101628E+0
7.79978185E+2	4.56829400E-1	2.35242494E+0
7.76540106E+2	4.56798300E-1	2.35491649E+0
7.70687644E+2	4.56891600E-1	2.35883303E+0
7.70222311E+2	4.56988800E-1	2.36533931E+0
7.68298433E+2	4.56903300E-1	2.37178572E+0
7.65649794E+2	4.56914900E-1	2.38195927E+0
7.61666885E+2	4.56817800E-1	2.40780276E+0
7.59821313E+2	4.56747800E-1	2.43911891E+0
7.54309273E+2	4.56794400E-1	2.46312532E+0
7.54049138E+2	4.56817800E-1	2.50017990E+0
7.51050230E+2	4.56813900E-1	2.53598953E+0
7.49418142E+2	4.56942100E-1	2.57598804E+0
7.47559872E+2	4.56965400E-1	2.59796633E+0
7.45011034E+2	4.56883800E-1	2.60547975E+0
7.42173781E+2	4.56899400E-1	2.60613936E+0
7.38243261E+2	4.56806100E-1	2.60610336E+0
7.37575431E+2	4.56879900E-1	2.60612335E+0
7.34598722E+2	4.56833300E-1	2.60613502E+0
7.32528543E+2	4.56938200E-1	2.60614280E+0
7.30669372E+2	4.56786600E-1	2.60609532E+0
7.28855591E+2	4.56961500E-1	2.60611947E+0
7.26315531E+2	4.56872200E-1	2.60611701E+0
7.23784478E+2	4.56806100E-1	2.60609818E+0
7.19886784E+2	4.56961500E-1	2.60608208E+0
7.17001124E+2	4.56903300E-1	2.60613204E+0
7.14535768E+2	4.56802200E-1	2.60614809E+0
7.12669392E+2	4.56786600E-1	2.60612892E+0
7.11673659E+2	4.56837200E-1	2.60611192E+0
7.09075421E+2	4.56942100E-1	2.60612977E+0
7.07037439E+2	4.56891600E-1	2.60612203E+0
7.05255042E+2	4.56868300E-1	2.60609439E+0
6.99166266E+2	4.56856600E-1	2.60613678E+0
6.98609884E+2	4.56794400E-1	2.60616511E+0
6.96681323E+2	4.56841000E-1	2.60612674E+0
6.95637858E+2	4.56961500E-1	2.60613474E+0
6.93172097E+2	4.56903300E-1	2.60615576E+0
6.92481842E+2	4.56740000E-1	2.60612759E+0
6.89842943E+2	4.56965400E-1	2.60615634E+0
6.86578722E+2	4.56798300E-1	2.60612025E+0
6.83299055E+2	4.56930400E-1	2.60612897E+0
6.81095635E+2	4.56775000E-1	2.60611462E+0
6.79363267E+2	4.56895500E-1	2.60610286E+0
6.77291647E+2	4.56802200E-1	2.60613179E+0
6.74354840E+2	4.56887700E-1	2.60607191E+0
6.71827569E+2	4.56747800E-1	2.60608761E+0
6.68672140E+2	4.56965400E-1	2.60607826E+0
6.65764011E+2	4.56806100E-1	2.60609856E+0
6.64363014E+2	4.56817800E-1	2.60607620E+0
6.61513514E+2	4.56848800E-1	2.60607495E+0
6.60639675E+2	4.56864400E-1	2.60605693E+0
6.58585477E+2	4.56728400E-1	2.60606614E+0
6.56069121E+2	4.56771100E-1	2.60610465E+0
6.54832300E+2	4.56767200E-1	2.60611359E+0
6.52186828E+2	4.56844900E-1	2.60606583E+0
6.50496247E+2	4.56907100E-1	2.60608604E+0
6.48456599E+2	4.56751700E-1	2.60605425E+0
6.46941137E+2	4.56782800E-1	2.60608121E+0
6.43851244E+2	4.56782800E-1	2.60607227E+0
6.42145593E+2	4.56883800E-1	2.60603703E+0
6.40823622E+2	4.56837200E-1	2.60607647E+0
6.37343622E+2	4.56926600E-1	2.60608099E+0
6.34240293E+2	4.56786600E-1	2.60608528E+0
6.32495452E+2	4.56809900E-1	2.60608636E+0
6.32499370E+2	4.56844900E-1	2.60610178E+0
6.30369529E+2	4.56942100E-1	2.60610335E+0
6.27792637E+2	4.56802200E-1	2.60610688E+0
6.25453815E+2	4.56825500E-1	2.60610567E+0
6.24166832E+2	4.56911000E-1	2.60608081E+0
6.23117064E+2	4.56767200E-1	2.60607227E+0
6.21372268E+2	4.56751700E-1	2.60611989E+0
6.18726572E+2	4.56837200E-1	2.60611641E+0
6.16692058E+2	4.56872200E-1	2.60607325E+0
6.13895704E+2	4.56918800E-1	2.60610822E+0
6.12230131E+2	4.56837200E-1	2.60608519E+0
6.10414909E+2	4.56848800E-1	2.60605161E+0
6.08989100E+2	4.56868300E-1	2.60604767E+0
6.06989393E+2	4.56930400E-1	2.60604254E+0
6.04195369E+2	4.56740000E-1	2.60609777E+0
6.03224852E+2	4.56938200E-1	2.60609021E+0
6.00827490E+2	4.56949900E-1	2.60604514E+0
5.97576984E+2	4.56778900E-1	2.60607031E+0
5.96017349E+2	4.56930400E-1	2.60604388E+0
5.93606794E+2	4.56911000E-1	2.60607572E+0
5.91641534E+2	4.56790500E-1	2.60605149E+0
5.90040246E+2	4.56802200E-1	2.60606383E+0
5.86826278E+2	4.56918800E-1	2.60607492E+0
5.85430819E+2	4.56786600E-1	2.60603579E+0
5.83531505E+2	4.56922700E-1	2.60601687E+0
5.82323353E+2	4.56747800E-1	2.60603294E+0
5.80382364E+2	4.56821600E-1	2.60599334E+0
5.78683993E+2	4.56911000E-1	2.60594710E+0
5.76460941E+2	4.56802200E-1	2.60595215E+0
5.74973172E+2	4.56961500E-1	2.60598046E+0
5.73059561E+2	4.56759400E-1	2.60599870E+0
5.71211873E+2	4.56728400E-1	2.60599750E+0
5.69431834E+2	4.56965400E-1	2.60599580E+0
5.68034304E+2	4.56903300E-1	2.60598994E+0
5.66715306E+2	4.56942100E-1	2.60599929E+0
5.65863351E+2	4.56926600E-1	2.60600631E+0
5.62746648E+2	4.56755500E-1	2.60597715E+0
5.61531532E+2	4.56751700E-1	2.60597035E+0
5.60128284E+2	4.56790500E-1	2.60598144E+0
5.59449338E+2	4.56743900E-1	2.60599741E+0
5.57814088E+2	4.56747800E-1	2.60600608E+0
5.56044210E+2	4.56965400E-1	2.60599074E+0
5.54411312E+2	4.56809900E-1	2.60597460E+0
5.51734228E+2	4.56813900E-1	2.60598144E+0
5.49930984E+2	4.56957700E-1	2.60594699E+0
5.48956594E+2	4.56841000E-1	2.60591640E+0
5.46890829E+2	4.56767200E-1	2.60596707E+0
5.45925175E+2	4.56938200E-1	2.60591380E+0
5.43558434E+2	4.56887700E-1	2.60591412E+0
5.41370504E+2	4.56942100E-1	2.60591747E+0
5.39751879E+2	4.56938200E-1	2.60597024E+0
5.38209490E+2	4.56926600E-1	2.60591863E+0
5.37336506E+2	4.56965400E-1	2.60591787E+0
5.35795693E+2	4.56926600E-1	2.60590839E+0
5.34497064E+2	4.56786600E-1	2.60590902E+0
5.32362358E+2	4.56907100E-1	2.60590629E+0
5.30692670E+2	4.56755500E-1	2.60588599E+0
5.29872190E+2	4.56903300E-1	2.60587642E+0
5.28302602E+2	4.56794400E-1	2.60590334E+0
5.26505616E+2	4.56872200E-1	2.60586072E+0
5.26135295E+2	4.56778900E-1	2.60585442E+0
5.24278065E+2	4.56907100E-1	2.60585316E+0
5.22295878E+2	4.56751700E-1	2.60582803E+0
5.20781587E+2	4.56977100E-1	2.60581855E+0
5.18718389E+2	4.56763300E-1	2.60579950E+0
5.16842918E+2	4.56899400E-1	2.60583452E+0
5.14867571E+2	4.56802200E-1	2.60585030E+0
5.13173118E+2	4.56918800E-1	2.60582092E+0
5.11708494E+2	4.56782800E-1	2.60582530E+0
5.10982276E+2	4.56895500E-1	2.60583004E+0
5.10389510E+2	4.56778900E-1	2.60583639E+0
5.08918268E+2	4.56977100E-1	2.60581296E+0
5.07830315E+2	4.56879900E-1	2.60578134E+0
5.05600599E+2	4.56864400E-1	2.60580742E+0
5.04592033E+2	4.56922700E-1	2.60580205E+0
5.03976077E+2	4.56771100E-1	2.60579033E+0
5.02435654E+2	4.56813900E-1	2.60579766E+0
5.00272260E+2	4.56930400E-1	2.60577297E+0
4.98925524E+2	4.56872200E-1	2.60577293E+0
4.98029125E+2	4.56895500E-1	2.60576962E+0
4.97011508E+2	4.56790500E-1	2.60578218E+0
4.95920133E+2	4.56844900E-1	2.60575584E+0
4.94352303E+2	4.56763300E-1	2.60574632E+0
4.93364814E+2	4.56938200E-1	2.60572691E+0
4.91971590E+2	4.56775000E-1	2.60572941E+0
4.90274391E+2	4.56903300E-1	2.60574565E+0
4.89246417E+2	4.56938200E-1	2.60572695E+0
4.87812684E+2	4.56771100E-1	2.60572253E+0
4.86445414E+2	4.56806100E-1	2.60573281E+0
4.85199678E+2	4.56914900E-1	2.60575334E+0
4.84179945E+2	4.56860500E-1	2.60566318E+0
4.83130357E+2	4.56802200E-1	2.60564655E+0
4.82537096E+2	4.56724500E-1	2.60566564E+0
4.81918573E+2	4.56759400E-1	2.60566318E+0
4.80833817E+2	4.56782800E-1	2.60567933E+0
4.80717236E+2	4.56728400E-1	2.60561757E+0
4.80518657E+2	4.56907100E-1	2.60559020E+0
4.80499475E+2	4.56918800E-1	2.60558256E+0
4.79847090E+2	4.56705000E-1	2.60560907E+0
4.79451238E+2	4.56755500E-1	2.60562549E+0
4.79100369E+2	4.56876000E-1	2.60563461E+0
4.78325460E+2	4.56771100E-1	2.60563778E+0
4.78059157E+2	4.56930400E-1	2.60566493E+0
4.77600488E+2	4.56786600E-1	2.60565876E+0
4.77348909E+2	4.56751700E-1	2.60560563E+0
4.76732503E+2	4.56891600E-1	2.60562687E+0
4.76493193E+2	4.56891600E-1	2.60559843E+0
4.77232748E+2	4.56732200E-1	2.60560931E+0
4.77665480E+2	4.56786600E-1	2.60565139E+0
4.77484372E+2	4.56782800E-1	2.60562018E+0
4.77397690E+2	4.56903300E-1	2.60562366E+0
4.77467036E+2	4.56887700E-1	2.60562693E+0
4.77154217E+2	4.56693400E-1	2.60559858E+0
4.77310282E+2	4.56794400E-1	2.60559321E+0
4.77321255E+2	4.56759400E-1	2.60557268E+0
4.77273479E+2	4.56743900E-1	2.60556763E+0
4.76846511E+2	4.56872200E-1	2.60549483E+0
4.76768566E+2	4.56724500E-1	2.60553141E+0
4.76404999E+2	4.56841000E-1	2.60554371E+0
4.76664143E+2	4.56868300E-1	2.60553131E+0
4.76378432E+2	4.56852700E-1	2.60547675E+0
4.76624930E+2	4.56903300E-1	2.60548663E+0
4.76755335E+2	4.56848800E-1	2.60545595E+0
4.76687926E+2	4.56775000E-1	2.60544500E+0
4.76888532E+2	4.56720500E-1	2.60543538E+0
4.76612953E+2	4.56891600E-1	2.60544898E+0
4.76850752E+2	4.56872200E-1	2.60544428E+0
4.76888036E+2	4.56755500E-1	2.60546995E+0
4.76602400E+2	4.56767200E-1	2.60548042E+0
4.76248635E+2	4.56844900E-1	2.60547890E+0
4.76660923E+2	4.56930400E-1	2.60550018E+0
4.76983288E+2	4.56883800E-1	2.60551445E+0
4.77047139E+2	4.56775000E-1	2.60549875E+0
4.77326276E+2	4.56926600E-1	2.60553238E+0
4.76856170E+2	4.56895500E-1	2.60549477E+0
4.76850451E+2	4.56868300E-1	2.60548529E+0
4.76436491E+2	4.56899400E-1	2.60549169E+0
4.76220486E+2	4.56708900E-1	2.60547138E+0
4.76670869E+2	4.56883800E-1	2.60549687E+0
4.77062038E+2	4.56926600E-1	2.60548413E+0
4.77323658E+2	4.56798300E-1	2.60547058E+0
4.77859011E+2	4.56872200E-1	2.60546378E+0
4.78136796E+2	4.56732200E-1	2.60548046E+0
4.77660688E+2	4.56732200E-1	2.60548261E+0
4.77736060E+2	4.56755500E-1	2.60547024E+0
4.77702559E+2	4.56693400E-1	2.60542645E+0
4.77585392E+2	4.56872200E-1	2.60547323E+0
4.77386994E+2	4.56747800E-1	2.60545731E+0
4.77685267E+2	4.56821600E-1	2.60542882E+0
4.77302924E+2	4.56883800E-1	2.60543249E+0
4.77040805E+2	4.56708900E-1	2.60541388E+0
4.77580474E+2	4.56809900E-1	2.60544380E+0
4.77560121E+2	4.56852700E-1	2.60540901E+0
4.76957629E+2	4.56701100E-1	2.60541281E+0
4.77457049E+2	4.56775000E-1	2.60540253E+0
4.76944931E+2	4.56724500E-1	2.60545225E+0
4.76450600E+2	4.56879900E-1	2.60547609E+0
4.75866975E+2	4.56817800E-1	2.60541780E+0
4.75684631E+2	4.56747800E-1	2.60541712E+0
4.75992722E+2	4.56689500E-1	2.60546555E+0
4.76112770E+2	4.56844900E-1	2.60544999E+0
4.76022981E+2	4.56833300E-1	2.60547145E+0
4.76021676E+2	4.56911000E-1	2.60546291E+0
4.76293968E+2	4.56732200E-1	2.60549623E+0
4.76242184E+2	4.56852700E-1	2.60548384E+0
4.76515962E+2	4.56914900E-1	2.60544587E+0
4.76569321E+2	4.56712800E-1	2.60543599E+0
4.76304549E+2	4.56736100E-1	2.60547552E+0
4.76585892E+2	4.56895500E-1	2.60546872E+0
4.77057934E+2	4.56685600E-1	2.60544820E+0
4.77625888E+2	4.56697300E-1	2.60545906E+0
4.77109988E+2	4.56930400E-1	2.60544668E+0
4.76670412E+2	4.56778900E-1	2.60542521E+0
4.77049784E+2	4.56743900E-1	2.60542673E+0
4.76672574E+2	4.56755500E-1	2.60541430E+0
4.77136420E+2	4.56860500E-1	2.60546769E+0
4.77006961E+2	4.56759400E-1	2.60546103E+0
4.77379128E+2	4.56740000E-1	2.60540079E+0
4.77035239E+2	4.56658400E-1	2.60543885E+0
4.76541493E+2	4.56813900E-1	2.60545209E+0
4.76821891E+2	4.56736100E-1	2.60544542E+0
4.76473589E+2	4.56790500E-1	2.60543214E+0
4.76863047E+2	4.56775000E-1	2.60542315E+0
4.77234899E+2	4.56883800E-1	2.60539909E+0
4.77274435E+2	4.56708900E-1	2.60545119E+0
4.77287178E+2	4.56775000E-1	2.60549725E+0
4.76971343E+2	4.56817800E-1	2.60549059E+0
4.77038797E+2	4.56771100E-1	2.60549399E+0
4.77455403E+2	4.56763300E-1	2.60552435E+0
4.77794744E+2	4.56860500E-1	2.60555217E+0
4.78339959E+2	4.56806100E-1	2.60552592E+0
4.77915603E+2	4.56763300E-1	2.60554868E+0
4.77603054E+2	4.56771100E-1	2.60548522E+0
4.77233859E+2	4.56899400E-1	2.60551608E+0
4.77599497E+2	4.56848800E-1	2.60555754E+0
4.76932403E+2	4.56887700E-1	2.60559125E+0
4.76857210E+2	4.56755500E-1	2.60554484E+0
4.77321102E+2	4.56740000E-1	2.60558025E+0
4.77499147E+2	4.56852700E-1	2.60561630E+0
4.77250856E+2	4.56876000E-1	2.60557337E+0
4.77527111E+2	4.56685600E-1	2.60557542E+0
4.76755309E+2	4.56903300E-1	2.60555865E+0
4.77036773E+2	4.56891600E-1	2.60559009E+0
4.77246652E+2	4.56716700E-1	2.60556067E+0
4.77258539E+2	4.56817800E-1	2.60556809E+0
4.77602608E+2	4.56740000E-1	2.60559184E+0
4.78107251E+2	4.56767200E-1	2.60556697E+0
4.78070147E+2	4.56911000E-1	2.60556210E+0
4.77920965E+2	4.56934400E-1	2.60556997E+0
4.77630976E+2	4.56732200E-1	2.60560328E+0
4.77153601E+2	4.56771100E-1	2.60554430E+0
4.77187913E+2	4.56802200E-1	2.60556836E+0
4.77993171E+2	4.56868300E-1	2.60552404E+0
4.78150819E+2	4.56794400E-1	2.60557328E+0
4.77458269E+2	4.56763300E-1	2.60554586E+0
4.77416572E+2	4.56817800E-1	2.60556478E+0
4.77713089E+2	4.56911000E-1	2.60549940E+0
4.76978257E+2	4.56837200E-1	2.60555400E+0
4.76566149E+2	4.56821600E-1	2.60554832E+0
4.76605775E+2	4.56883800E-1	2.60556326E+0
4.76436510E+2	4.56813900E-1	2.60556031E+0
4.76350324E+2	4.56837200E-1	2.60557185E+0
4.76584251E+2	4.56724500E-1	2.60556482E+0
4.76650038E+2	4.56895500E-1	2.60561920E+0
4.76589204E+2	4.56907100E-1	2.60561075E+0
4.76237264E+2	4.56705000E-1	2.60557703E+0
4.76501765E+2	4.56899400E-1	2.60558455E+0
4.76450252E+2	4.56841000E-1	2.60556491E+0
4.76202996E+2	4.56872200E-1	2.60560056E+0
4.76912252E+2	4.56942100E-1	2.60558678E+0
4.76953634E+2	4.56743900E-1	2.60558607E+0
4.76719797E+2	4.56790500E-1	2.60559067E+0
4.76521524E+2	4.56806100E-1	2.60561272E+0
4.76327884E+2	4.56747800E-1	2.60561054E+0
4.75839857E+2	4.56778900E-1	2.60559880E+0
4.75827699E+2	4.56899400E-1	2.60557130E+0
4.76627329E+2	4.56794400E-1	2.60553373E+0
4.76817578E+2	4.56763300E-1	2.60556759E+0
4.77254362E+2	4.56720500E-1	2.60556942E+0
4.77777242E+2	4.56763300E-1	2.60555248E+0
4.78727630E+2	4.56887700E-1	2.60553370E+0
4.79998851E+2	4.56759400E-1	2.60548956E+0
4.81045197E+2	4.56755500E-1	2.60548916E+0
4.82457585E+2	4.56911000E-1	2.60550808E+0
4.84618540E+2	4.56833300E-1	2.60548540E+0
4.85885799E+2	4.56852700E-1	2.60546975E+0
4.87575973E+2	4.56926600E-1	2.60550052E+0
4.88493850E+2	4.56724500E-1	2.60548335E+0
4.89585360E+2	4.56697300E-1	2.60551774E+0
4.90149216E+2	4.56876000E-1	2.60547615E+0
4.90797278E+2	4.56821600E-1	2.60545732E+0
4.91976550E+2	4.56918800E-1	2.60549529E+0
4.93388803E+2	4.56755500E-1	2.60550960E+0
4.94838881E+2	4.56829400E-1	2.60547060E+0
4.95969746E+2	4.56716700E-1	2.60545772E+0
4.97071748E+2	4.56771100E-1	2.60548071E+0
4.98489900E+2	4.56732200E-1	2.60546456E+0
5.00584932E+2	4.56778900E-1	2.60548142E+0
5.02059010E+2	4.56844900E-1	2.60546351E+0
5.02578693E+2	4.56829400E-1	2.60546471E+0
5.03523903E+2	4.56891600E-1	2.60543108E+0
5.05083677E+2	4.56701100E-1	2.60544986E+0
5.07092639E+2	4.56759400E-1	2.60549132E+0
5.09080502E+2	4.56767200E-1	2.60544620E+0
5.10470916E+2	4.56701100E-1	2.60544218E+0
5.11133207E+2	4.56747800E-1	2.60547516E+0
5.12343595E+2	4.56724500E-1	2.60547194E+0
5.14139993E+2	4.56743900E-1	2.60551407E+0
5.15648880E+2	4.56907100E-1	2.60546599E+0
5.16705402E+2	4.56786600E-1	2.60548263E+0
5.18770806E+2	4.56782800E-1	2.60549292E+0
5.19448902E+2	4.56732200E-1	2.60548987E+0
5.21134439E+2	4.56852700E-1	2.60547758E+0
5.22532643E+2	4.56736100E-1	2.60544654E+0
5.24579270E+2	4.56778900E-1	2.60545513E+0
5.25776464E+2	4.56701100E-1	2.60549269E+0
5.27506144E+2	4.56763300E-1	2.60552297E+0
5.29068022E+2	4.56747800E-1	2.60548935E+0
5.30371079E+2	4.56771100E-1	2.60549970E+0
5.31853893E+2	4.56771100E-1	2.60554760E+0
5.33969773E+2	4.56883800E-1	2.60555949E+0
5.35340104E+2	4.56825500E-1	2.60554625E+0
5.37194455E+2	4.56852700E-1	2.60557295E+0
5.38798487E+2	4.56728400E-1	2.60554245E+0
5.40852588E+2	4.56841000E-1	2.60557013E+0
5.42280736E+2	4.56903300E-1	2.60555502E+0
5.44718171E+2	4.56720500E-1	2.60555292E+0
5.46478275E+2	4.56887700E-1	2.60553114E+0
5.48781522E+2	4.56934400E-1	2.60554554E+0
5.49553774E+2	4.56844900E-1	2.60549520E+0
5.50998223E+2	4.56697300E-1	2.60551852E+0
5.52978170E+2	4.56856600E-1	2.60549719E+0
5.54208819E+2	4.56763300E-1	2.60547134E+0
5.55982072E+2	4.56907100E-1	2.60548449E+0
5.57881902E+2	4.56887700E-1	2.60546280E+0
5.59146279E+2	4.56677800E-1	2.60549750E+0
5.62012707E+2	4.56852700E-1	2.60547362E+0
5.62826386E+2	4.56841000E-1	2.60550738E+0
5.64061007E+2	4.56724500E-1	2.60551011E+0
5.65244379E+2	4.56899400E-1	2.60551914E+0
5.66526363E+2	4.56891600E-1	2.60555380E+0
5.68101712E+2	4.56708900E-1	2.60553842E+0
5.69016256E+2	4.56790500E-1	2.60552903E+0
5.70798064E+2	4.56848800E-1	2.60556449E+0
5.72812449E+2	4.56716700E-1	2.60555970E+0
5.75698240E+2	4.56914900E-1	2.60559020E+0
5.77590500E+2	4.56790500E-1	2.60554535E+0
5.79073944E+2	4.56891600E-1	2.60559566E+0
5.83639281E+2	4.56887700E-1	2.60557535E+0
5.83803188E+2	4.56728400E-1	2.60552255E+0
5.86080588E+2	4.56767200E-1	2.60555278E+0
5.87169936E+2	4.56740000E-1	2.60553901E+0
5.87934893E+2	4.56697300E-1	2.60554075E+0
5.89500458E+2	4.56775000E-1	2.60555582E+0
5.91029632E+2	4.56732200E-1	2.60551929E+0
5.92723994E+2	4.56848800E-1	2.60552133E+0
5.95251667E+2	4.56856600E-1	2.60553426E+0
5.97047480E+2	4.56763300E-1	2.60551440E+0
5.99398729E+2	4.56883800E-1	2.60553363E+0
6.00213174E+2	4.56751700E-1	2.60555559E+0
6.01440627E+2	4.56771100E-1	2.60553444E+0
6.03569566E+2	4.56856600E-1	2.60548618E+0
6.05496143E+2	4.56895500E-1	2.60547447E+0
6.06990034E+2	4.56697300E-1	2.60551883E+0
6.09334844E+2	4.56934400E-1	2.60549947E+0
6.12165384E+2	4.56720500E-1	2.60546892E+0
6.14978768E+2	4.56806100E-1	2.60547402E+0
6.16039838E+2	4.56887700E-1	2.60549554E+0
6.17774438E+2	4.56856600E-1	2.60545889E+0
6.19974017E+2	4.56778900E-1	2.60546305E+0
6.22378851E+2	4.56891600E-1	2.60546735E+0
6.23454691E+2	4.56837200E-1	2.60550670E+0
6.25782525E+2	4.56895500E-1	2.60547092E+0
6.27359811E+2	4.56724500E-1	2.60548260E+0
6.31762685E+2	4.56751700E-1	2.60547128E+0
6.31944964E+2	4.56883800E-1	2.60550021E+0
6.33378132E+2	4.56716700E-1	2.60551618E+0
6.35779631E+2	4.56736100E-1	2.60552432E+0
6.37521094E+2	4.56914900E-1	2.60549463E+0
6.39538181E+2	4.56689500E-1	2.60554109E+0
6.41308958E+2	4.56872200E-1	2.60555719E+0
6.43166416E+2	4.56883800E-1	2.60552374E+0
6.45569224E+2	4.56732200E-1	2.60546905E+0
6.47498960E+2	4.56864400E-1	2.60548358E+0
6.50117084E+2	4.56879900E-1	2.60550406E+0
6.51805187E+2	4.56852700E-1	2.60551766E+0
6.54039945E+2	4.56732200E-1	2.60552012E+0
6.55602551E+2	4.56883800E-1	2.60552937E+0
6.57474239E+2	4.56790500E-1	2.60551426E+0
6.59324852E+2	4.56751700E-1	2.60548948E+0
6.60759485E+2	4.56778900E-1	2.60549181E+0
6.63172099E+2	4.56747800E-1	2.60550017E+0
6.67470909E+2	4.56907100E-1	2.60549838E+0
6.67660843E+2	4.56767200E-1	2.60552664E+0
6.70290417E+2	4.56763300E-1	2.60549655E+0
6.72132475E+2	4.56736100E-1	2.60549100E+0
6.74145959E+2	4.56732200E-1	2.60552723E+0
6.76837269E+2	4.56821600E-1	2.60553219E+0
6.79744479E+2	4.56778900E-1	2.60550943E+0
6.81843279E+2	4.56685600E-1	2.60552297E+0
6.84652475E+2	4.56751700E-1	2.60551966E+0
6.87315327E+2	4.56844900E-1	2.60553732E+0
6.90087509E+2	4.56794400E-1	2.60550651E+0
6.92495990E+2	4.56732200E-1	2.60549694E+0
6.94850345E+2	4.56759400E-1	2.60546139E+0
6.96118775E+2	4.56771100E-1	2.60548038E+0
6.99096879E+2	4.56895500E-1	2.60543479E+0
7.01561151E+2	4.56763300E-1	2.60545854E+0
7.04582392E+2	4.56716700E-1	2.60548957E+0
7.06168728E+2	4.56732200E-1	2.60546690E+0
7.08559648E+2	4.56872200E-1	2.60547768E+0
7.11002037E+2	4.56856600E-1	2.60547423E+0
7.13843971E+2	4.56899400E-1	2.60548201E+0
7.15628788E+2	4.56654500E-1	2.60549217E+0
7.20441630E+2	4.56716700E-1	2.60550102E+0
7.20889671E+2	4.56876000E-1	2.60548872E+0
7.21909404E+2	4.56778900E-1	2.60548461E+0
7.23963505E+2	4.56743900E-1	2.60545393E+0
7.26252209E+2	4.56697300E-1	2.60546365E+0
7.29057218E+2	4.56794400E-1	2.60542233E+0
7.34189263E+2	4.56728400E-1	2.60543467E+0
7.34414860E+2	4.56681700E-1	2.60536164E+0
7.36253720E+2	4.56697300E-1	2.60539478E+0
7.37986581E+2	4.56743900E-1	2.60535695E+0
7.40779656E+2	4.56685600E-1	2.60537510E+0
7.43064982E+2	4.56852700E-1	2.60538100E+0
7.45303386E+2	4.56701100E-1	2.60539845E+0
7.47173046E+2	4.56825500E-1	2.60540395E+0
7.50120951E+2	4.56724500E-1	2.60536222E+0
7.52536462E+2	4.56868300E-1	2.60533709E+0
7.54996321E+2	4.56681700E-1	2.60530203E+0
7.57940424E+2	4.56763300E-1	2.60532506E+0
7.60167256E+2	4.56677800E-1	2.60533302E+0
7.62500222E+2	4.56728400E-1	2.60532797E+0
7.64996014E+2	4.56914900E-1	2.56275916E+0
7.67798365E+2	4.56887700E-1	2.50976807E+0
7.70207743E+2	4.56852700E-1	2.49909738E+0
7.76188577E+2	4.56767200E-1	2.49380098E+0
7.76814889E+2	4.56693400E-1	2.49038691E+0
7.79528983E+2	4.56887700E-1	2.48903504E+0
7.82448186E+2	4.56903300E-1	2.48702351E+0
7.82936619E+2	4.56860500E-1	2.48598378E+0
7.85310472E+2	4.56751700E-1	2.48258966E+0
7.88715108E+2	4.56798300E-1	2.48154132E+0
7.91458218E+2	4.56767200E-1	2.47747632E+0
7.94425332E+2	4.56736100E-1	2.47426068E+0
7.96881950E+2	4.56755500E-1	2.47190848E+0
7.98716307E+2	4.56736100E-1	2.46921569E+0
8.00691742E+2	4.56771100E-1	2.46653820E+0
8.04138283E+2	4.56732200E-1	2.46440916E+0
8.05907213E+2	4.56708900E-1	2.46083720E+0
8.07342109E+2	4.56775000E-1	2.45864295E+0
8.12574558E+2	4.56697300E-1	2.45687456E+0
8.13071231E+2	4.56751700E-1	2.45397692E+0
8.15275100E+2	4.56677800E-1	2.45233241E+0
8.18981686E+2	4.56911000E-1	2.45082196E+0
8.21683354E+2	4.56852700E-1	2.44764840E+0
8.23603718E+2	4.56829400E-1	2.44565283E+0
8.26519662E+2	4.56782800E-1	2.44451034E+0
8.29712806E+2	4.56743900E-1	2.44344369E+0
8.33022775E+2	4.56755500E-1	2.44231103E+0
8.34675440E+2	4.56743900E-1	2.44103456E+0
8.36340173E+2	4.56860500E-1	2.44029362E+0
8.38757750E+2	4.56732200E-1	2.43974925E+0
8.41310596E+2	4.56922700E-1	2.43914952E+0
8.43681523E+2	4.56771100E-1	2.43736338E+0
8.46314440E+2	4.56907100E-1	2.43601281E+0
8.48419425E+2	4.56895500E-1	2.43441771E+0
8.50857175E+2	4.56677800E-1	2.43336930E+0
8.53526962E+2	4.56778900E-1	2.43202418E+0
8.56029691E+2	4.56775000E-1	2.43089775E+0
8.59269773E+2	4.56798300E-1	2.42960580E+0
8.62053935E+2	4.56775000E-1	2.42835374E+0
8.64161094E+2	4.56868300E-1	2.42656112E+0
8.66773969E+2	4.56852700E-1	2.42567330E+0
8.69573035E+2	4.56809900E-1	2.42455724E+0
8.72350577E+2	4.56879900E-1	2.42349488E+0
8.74777792E+2	4.56899400E-1	2.42225928E+0
8.77579604E+2	4.56782800E-1	2.42112278E+0
8.80792445E+2	4.56716700E-1	2.42001096E+0
8.83755462E+2	4.56903300E-1	2.41921697E+0
8.85930918E+2	4.56809900E-1	2.41842932E+0
8.88059723E+2	4.56821600E-1	2.41750573E+0
8.91080153E+2	4.56778900E-1	2.41660410E+0
8.92881505E+2	4.56786600E-1	2.41578551E+0
8.95416204E+2	4.56887700E-1	2.41468170E+0
8.97320988E+2	4.56984900E-1	2.41385743E+0
8.99692321E+2	4.56751700E-1	2.41311450E+0
9.02411263E+2	4.56755500E-1	2.41244375E+0
9.05256752E+2	4.56821600E-1	2.41129370E+0
9.08044652E+2	4.56755500E-1	2.41035790E+0
9.11383936E+2	4.56934400E-1	2.40939491E+0
9.13689167E+2	4.56813900E-1	2.40865919E+0
9.15884346E+2	4.56817800E-1	2.40814889E+0
9.18117845E+2	4.56817800E-1	2.40746683E+0
9.20398948E+2	4.56961500E-1	2.40661394E+0
9.23290447E+2	4.56778900E-1	2.40593961E+0
9.25755983E+2	4.56817800E-1	2.40506369E+0
9.27888481E+2	4.56755500E-1	2.40417570E+0
9.30374190E+2	4.56825500E-1	2.40334508E+0
9.32961034E+2	4.56813900E-1	2.40251902E+0
9.35388024E+2	4.56879900E-1	2.40163885E+0
9.37656736E+2	4.56809900E-1	2.40086471E+0
9.40084458E+2	4.56918800E-1	2.39994707E+0
9.42830436E+2	4.56755500E-1	2.39909167E+0
9.45454970E+2	4.56778900E-1	2.39833547E+0
9.47906457E+2	4.56790500E-1	2.39754720E+0
9.50288373E+2	4.56837200E-1	2.39645179E+0
9.52372015E+2	4.56782800E-1	2.39551407E+0
9.54555261E+2	4.56953800E-1	2.39473939E+0
9.57222308E+2	4.56829400E-1	2.39408407E+0
9.59736328E+2	4.56938200E-1	2.39341686E+0
9.62229377E+2	4.56782800E-1	2.39259829E+0
9.64601747E+2	4.56755500E-1	2.39202383E+0
9.66812777E+2	4.56844900E-1	2.39130885E+0
9.69075591E+2	4.56914900E-1	2.39050940E+0
9.71446880E+2	4.56876000E-1	2.38987725E+0
9.73812819E+2	4.56961500E-1	2.38916670E+0
9.75953907E+2	4.56926600E-1	2.38853025E+0
9.78285121E+2	4.56883800E-1	2.38791911E+0
9.80500744E+2	4.56911000E-1	2.38735373E+0
9.82695969E+2	4.56852700E-1	2.38675690E+0
9.84900695E+2	4.56786600E-1	2.38622934E+0
9.86744646E+2	4.56806100E-1	2.38548356E+0
9.89080047E+2	4.56841000E-1	2.38483629E+0
9.91312586E+2	4.56821600E-1	2.38400634E+0
9.93632609E+2	4.56922700E-1	2.38388103E+0
9.95799870E+2	4.56872200E-1	2.38366598E+0
9.98071102E+2	4.56798300E-1	2.38334990E+0
1.00013317E+3	4.56775000E-1	2.38311588E+0
1.00254485E+3	4.56778900E-1	2.38280222E+0
1.00436075E+3	4.56907100E-1	2.38251852E+0
1.00650920E+3	4.56841000E-1	2.38219032E+0
1.00851072E+3	4.56736100E-1	2.38187787E+0
1.01067943E+3	4.56872200E-1	2.38157328E+0
1.01268517E+3	4.56899400E-1	2.38124316E+0
1.01478714E+3	4.56856600E-1	2.38101456E+0
1.01675667E+3	4.56755500E-1	2.38071024E+0
1.01856136E+3	4.56747800E-1	2.38050279E+0
1.02063343E+3	4.56879900E-1	2.38023653E+0
1.02234729E+3	4.56747800E-1	2.38009414E+0
1.02443750E+3	4.56708900E-1	2.38001271E+0
1.02627821E+3	4.56775000E-1	2.37985914E+0
1.02797321E+3	4.56763300E-1	2.37963621E+0
1.02976542E+3	4.56856600E-1	2.37954239E+0
1.03169101E+3	4.56771100E-1	2.37932112E+0
1.03334890E+3	4.56848800E-1	2.37911174E+0
1.03508038E+3	4.56728400E-1	2.37886015E+0
1.03667593E+3	4.56763300E-1	2.37856102E+0
1.03870919E+3	4.56918800E-1	2.37844167E+0
1.04028386E+3	4.56860500E-1	2.37843254E+0
1.04199687E+3	4.56934400E-1	2.37831211E+0
1.04357870E+3	4.56724500E-1	2.37820081E+0
1.04529648E+3	4.56891600E-1	2.37798557E+0
1.04674990E+3	4.56743900E-1	2.37785557E+0
1.04845101E+3	4.56708900E-1	2.37769704E+0
1.05004410E+3	4.56926600E-1	2.37753936E+0
1.05154191E+3	4.56778900E-1	2.37748378E+0
1.05303823E+3	4.56782800E-1	2.37741272E+0
1.05586162E+3	4.56806100E-1	2.37745390E+0
1.05599459E+3	4.56903300E-1	2.37741263E+0
1.05749915E+3	4.56887700E-1	2.37744988E+0
1.05885539E+3	4.56809900E-1	2.37700062E+0
1.06010923E+3	4.56782800E-1	2.37642337E+0
1.06142949E+3	4.56821600E-1	2.37585302E+0
1.06274439E+3	4.56794400E-1	2.37551127E+0
1.06410500E+3	4.56732200E-1	2.37524054E+0
1.06533493E+3	4.56813900E-1	2.37514944E+0
1.06655167E+3	4.56829400E-1	2.37513522E+0
1.06785241E+3	4.56786600E-1	2.37497781E+0
1.06892571E+3	4.56879900E-1	2.37493394E+0
1.07108423E+3	4.56914900E-1	2.37471705E+0
1.07127385E+3	4.56786600E-1	2.37459273E+0
1.07227733E+3	4.56969300E-1	2.37423846E+0
1.07326595E+3	4.56813900E-1	2.37406549E+0
1.07432238E+3	4.56767200E-1	2.37395069E+0
1.07519933E+3	4.56953800E-1	2.37391273E+0
1.07622581E+3	4.56798300E-1	2.37394868E+0
1.07713275E+3	4.56899400E-1	2.37401285E+0
1.07796768E+3	4.56953800E-1	2.37392024E+0
1.07888740E+3	4.56763300E-1	2.37390293E+0
1.07965173E+3	4.56821600E-1	2.37387621E+0
1.08047257E+3	4.56825500E-1	2.37367135E+0
1.08121920E+3	4.56856600E-1	2.37356112E+0
1.08188450E+3	4.56860500E-1	2.37360445E+0
1.08257166E+3	4.56965400E-1	2.37342669E+0
1.08325038E+3	4.56794400E-1	2.37340048E+0
1.08381577E+3	4.56806100E-1	2.37340411E+0
1.08438503E+3	4.56852700E-1	2.37339968E+0
1.08489999E+3	4.56973200E-1	2.37348205E+0
1.08545538E+3	4.56852700E-1	2.37346940E+0
1.08586460E+3	4.56926600E-1	2.37345419E+0
1.08627586E+3	4.56786600E-1	2.37346756E+0
1.08660822E+3	4.56887700E-1	2.37348491E+0
1.08706896E+3	4.56809900E-1	2.37342785E+0
1.08712579E+3	4.56778900E-1	2.37341911E+0
1.08737565E+3	4.56809900E-1	2.37339984E+0
