# Begin of measurement: 22.11.2018 13:27:30
# R-Sample[Ohm]	I-Coil[A]	U-Magnetometer[V]
# Kei2000	HP E3631A +6V : I	Kei2000
1.07637043E+3	6.86225600E-1	3.88933491E+0
1.07692245E+3	6.86120600E-1	3.88933222E+0
1.07738323E+3	6.86116700E-1	3.88933048E+0
1.07774653E+3	6.86260500E-1	3.88927628E+0
1.07821298E+3	6.86264400E-1	3.88930320E+0
1.07860280E+3	6.86136200E-1	3.88928504E+0
1.07898569E+3	6.86081700E-1	3.88930633E+0
1.07932710E+3	6.86140000E-1	3.88931823E+0
1.07970408E+3	6.86147800E-1	3.88932414E+0
1.08007823E+3	6.86210000E-1	3.88935752E+0
1.08037040E+3	6.86280000E-1	3.88934987E+0
1.08070139E+3	6.86136200E-1	3.88929401E+0
1.08105113E+3	6.86112800E-1	3.88930260E+0
1.08135746E+3	6.86112800E-1	3.88929003E+0
1.08165150E+3	6.86105100E-1	3.88930166E+0
1.08192308E+3	6.86260500E-1	3.88932952E+0
1.08223324E+3	6.86109000E-1	3.88932746E+0
1.08251508E+3	6.86112800E-1	3.88932724E+0
1.08278660E+3	6.86186700E-1	3.88935528E+0
1.08324063E+3	6.86112800E-1	3.88934714E+0
1.08327022E+3	6.86070100E-1	3.88934276E+0
1.08351675E+3	6.86186700E-1	3.88936145E+0
1.08396153E+3	6.86159500E-1	3.88934808E+0
1.08401723E+3	6.86221600E-1	3.88935962E+0
1.08439593E+3	6.86143900E-1	3.88936557E+0
1.08446077E+3	6.86210000E-1	3.88933565E+0
1.08466651E+3	6.86093400E-1	3.88934589E+0
1.08487387E+3	6.86210000E-1	3.88937163E+0
1.08510509E+3	6.86109000E-1	3.88936541E+0
1.08531033E+3	6.86268300E-1	3.88937073E+0
1.08550554E+3	6.86124500E-1	3.88937793E+0
1.08567151E+3	6.86229400E-1	3.88938951E+0
1.08586721E+3	6.86143900E-1	3.88943074E+0
1.08606268E+3	6.86237200E-1	3.88941737E+0
1.08623596E+3	6.86252800E-1	3.88941504E+0
1.08638568E+3	6.86217800E-1	3.88938164E+0
1.08658772E+3	6.86260500E-1	3.88939756E+0
1.08674717E+3	6.86283800E-1	3.88937323E+0
1.08696219E+3	6.86221600E-1	3.88937600E+0
1.08701285E+3	6.86140000E-1	3.88938723E+0
1.08715536E+3	6.86147800E-1	3.88941147E+0
1.08743112E+3	6.86190600E-1	3.88941625E+0
1.08756914E+3	6.86167200E-1	3.88941196E+0
1.08760165E+3	6.86295500E-1	3.88941124E+0
1.08773863E+3	6.86124500E-1	3.88942466E+0
1.08786755E+3	6.86132200E-1	3.88943873E+0
1.08800588E+3	6.86147800E-1	3.88943694E+0
1.08811894E+3	6.86109000E-1	3.88942665E+0
1.08825444E+3	6.86295500E-1	3.88941735E+0
1.08838601E+3	6.86085600E-1	3.88943604E+0
1.08859184E+3	6.86171100E-1	3.88941994E+0
1.08871572E+3	6.86163400E-1	3.88944275E+0
1.08881982E+3	6.86194400E-1	3.88942053E+0
1.08884770E+3	6.86256600E-1	3.88939566E+0
1.08896008E+3	6.86202200E-1	3.88939007E+0
1.08904938E+3	6.86163400E-1	3.88939808E+0
1.08921586E+3	6.86190600E-1	3.88940103E+0
1.08923252E+3	6.86128400E-1	3.88940823E+0
1.08933672E+3	6.86147800E-1	3.88942603E+0
1.08944902E+3	6.86221600E-1	3.88938797E+0
1.08955596E+3	6.86264400E-1	3.88939995E+0
1.08971235E+3	6.86241100E-1	3.88936275E+0
1.08972478E+3	6.86190600E-1	3.88937572E+0
1.08981038E+3	6.86299400E-1	3.88939226E+0
1.08988008E+3	6.86287700E-1	3.88937226E+0
1.08996775E+3	6.86287700E-1	3.88933070E+0
1.09005818E+3	6.86109000E-1	3.88932869E+0
1.09014099E+3	6.86105100E-1	3.88933531E+0
1.09020767E+3	6.86245000E-1	3.88936514E+0
1.09033848E+3	6.86062300E-1	3.88935293E+0
1.09041999E+3	6.86105100E-1	3.88936715E+0
1.09044543E+3	6.86237200E-1	3.88934430E+0
1.09057871E+3	6.86109000E-1	3.88934667E+0
1.09059362E+3	6.86186700E-1	3.88937180E+0
1.09072218E+3	6.86136200E-1	3.88936943E+0
1.09079088E+3	6.86124500E-1	3.88936603E+0
1.09079962E+3	6.86194400E-1	3.88934094E+0
1.09086812E+3	6.86147800E-1	3.88935481E+0
1.09093945E+3	6.86194400E-1	3.88932104E+0
1.09099199E+3	6.86241100E-1	3.88933419E+0
1.09109660E+3	6.86151700E-1	3.88933920E+0
1.09111011E+3	6.86221600E-1	3.88935499E+0
1.09119341E+3	6.86190600E-1	3.88934662E+0
1.09125055E+3	6.86318800E-1	3.88931295E+0
1.09126766E+3	6.86093400E-1	3.88928813E+0
1.09133647E+3	6.86143900E-1	3.88925343E+0
1.09144242E+3	6.86112800E-1	3.88926895E+0
1.09144919E+3	6.86101200E-1	3.88926224E+0
1.09150864E+3	6.86109000E-1	3.88924654E+0
1.09152512E+3	6.86233300E-1	3.88926689E+0
1.09159005E+3	6.86128400E-1	3.88923854E+0
1.09166039E+3	6.86136200E-1	3.88921975E+0
1.09167295E+3	6.86276100E-1	3.88920594E+0
1.09173095E+3	6.86237200E-1	3.88925115E+0
1.09181700E+3	6.86186700E-1	3.88921752E+0
1.09185856E+3	6.86074000E-1	3.88920661E+0
1.09186284E+3	6.86109000E-1	3.88925656E+0
1.09194116E+3	6.86175000E-1	3.88925110E+0
1.09197685E+3	6.86109000E-1	3.88924220E+0
1.09197883E+3	6.86225600E-1	3.88926376E+0
1.09205764E+3	6.86058400E-1	3.88925763E+0
1.09206232E+3	6.86140000E-1	3.88925392E+0
1.09212347E+3	6.86237200E-1	3.88923854E+0
1.09212730E+3	6.86147800E-1	3.88924524E+0
1.09216449E+3	6.86054500E-1	3.88925946E+0
1.09221668E+3	6.86252800E-1	3.88922025E+0
1.09225784E+3	6.86186700E-1	3.88924802E+0
1.09229098E+3	6.86054500E-1	3.88923263E+0
1.09231754E+3	6.86085600E-1	3.88920728E+0
1.09239157E+3	6.86159500E-1	3.88923541E+0
1.09239972E+3	6.86241100E-1	3.88927033E+0
1.09243566E+3	6.86276100E-1	3.88922601E+0
1.09246195E+3	6.86097300E-1	3.88920066E+0
1.09248884E+3	6.86116700E-1	3.88922700E+0
1.09253116E+3	6.86248800E-1	3.88920281E+0
1.09253355E+3	6.86120600E-1	3.88921077E+0
1.09255480E+3	6.86116700E-1	3.88922275E+0
1.09258691E+3	6.86252800E-1	3.88918237E+0
1.09262410E+3	6.86299400E-1	3.88916448E+0
1.09268329E+3	6.86151700E-1	3.88918456E+0
1.09269718E+3	6.86105100E-1	3.88916873E+0
1.09270533E+3	6.86054500E-1	3.88918690E+0
1.09275095E+3	6.86198400E-1	3.88916016E+0
1.09277058E+3	6.86233300E-1	3.88915462E+0
1.09275847E+3	6.86112800E-1	3.88913861E+0
1.09279476E+3	6.86081700E-1	3.88917286E+0
1.09281818E+3	6.86101200E-1	3.88915958E+0
1.09285411E+3	6.86233300E-1	3.88914621E+0
1.09292476E+3	6.86128400E-1	3.88911620E+0
1.09293345E+3	6.86101200E-1	3.88914142E+0
1.09293692E+3	6.86046700E-1	3.88911097E+0
1.09296021E+3	6.86039000E-1	3.88911450E+0
1.09296731E+3	6.86217800E-1	3.88914657E+0
1.09300446E+3	6.86252800E-1	3.88914473E+0
1.09301901E+3	6.86241100E-1	3.88910569E+0
1.09306088E+3	6.86202200E-1	3.88913664E+0
1.09307133E+3	6.86085600E-1	3.88910627E+0
1.09309029E+3	6.86050700E-1	3.88912837E+0
1.09310884E+3	6.86116700E-1	3.88913405E+0
1.09312577E+3	6.86097300E-1	3.88911495E+0
1.09317503E+3	6.86085600E-1	3.88909188E+0
1.09318955E+3	6.86050700E-1	3.88910355E+0
1.09319544E+3	6.86237200E-1	3.88912931E+0
1.09321294E+3	6.86074000E-1	3.88913744E+0
1.09320952E+3	6.86089500E-1	3.88913794E+0
1.09321961E+3	6.86260500E-1	3.88912228E+0
1.09324086E+3	6.86221600E-1	3.88911195E+0
1.09327590E+3	6.86225600E-1	3.88912702E+0
1.09328103E+3	6.86089500E-1	3.88914487E+0
1.09329503E+3	6.86097300E-1	3.88914634E+0
1.09332727E+3	6.86089500E-1	3.88914384E+0
1.09333732E+3	6.86015700E-1	3.88911754E+0
1.09335904E+3	6.86101200E-1	3.88911388E+0
1.09336425E+3	6.86155600E-1	3.88913557E+0
1.09337131E+3	6.86011700E-1	3.88914697E+0
1.09337748E+3	6.86066200E-1	3.88913995E+0
1.09339346E+3	6.86248800E-1	3.88911450E+0
1.09339567E+3	6.86182800E-1	3.88912121E+0
1.09342800E+3	6.86132200E-1	3.88913458E+0
1.09342985E+3	6.86054500E-1	3.88917680E+0
1.09343773E+3	6.86198400E-1	3.88918681E+0
1.09345133E+3	6.86101200E-1	3.88919312E+0
1.09347983E+3	6.86093400E-1	3.88917434E+0
1.09348366E+3	6.86074000E-1	3.88916208E+0
1.09350500E+3	6.86221600E-1	3.88915095E+0
1.09351761E+3	6.86093400E-1	3.88914697E+0
1.09351851E+3	6.86136200E-1	3.88916826E+0
1.09353585E+3	6.86245000E-1	3.88917000E+0
1.09354368E+3	6.86233300E-1	3.88916235E+0
1.09357736E+3	6.86283800E-1	3.88917295E+0
1.09357858E+3	6.86097300E-1	3.88915086E+0
1.09359803E+3	6.86112800E-1	3.88916074E+0
1.09360272E+3	6.86245000E-1	3.88918243E+0
1.09359290E+3	6.86062300E-1	3.88914786E+0
1.09360695E+3	6.86081700E-1	3.88916293E+0
1.09361276E+3	6.86206100E-1	3.88915028E+0
1.09362721E+3	6.86128400E-1	3.88915447E+0
1.09365679E+3	6.86081700E-1	3.88914627E+0
1.09367796E+3	6.86085600E-1	3.88914480E+0
1.09368426E+3	6.86190600E-1	3.88916090E+0
1.09370101E+3	6.86233300E-1	3.88916179E+0
1.09370137E+3	6.86128400E-1	3.88918759E+0
1.09368786E+3	6.86151700E-1	3.88918822E+0
1.09368813E+3	6.86175000E-1	3.88915025E+0
1.09372384E+3	6.86276100E-1	3.88914207E+0
1.09373051E+3	6.86128400E-1	3.88914238E+0
1.09374163E+3	6.86039000E-1	3.88917865E+0
1.09373857E+3	6.86206100E-1	3.88917959E+0
1.09375383E+3	6.86143900E-1	3.88920150E+0
1.09377797E+3	6.86217800E-1	3.88919734E+0
1.09377761E+3	6.86074000E-1	3.88920933E+0
1.09377756E+3	6.86050700E-1	3.88920691E+0
1.09376261E+3	6.86264400E-1	3.88920222E+0
1.09374951E+3	6.86093400E-1	3.88919419E+0
1.09371098E+3	6.86213900E-1	3.88922115E+0
1.09366328E+3	6.86194400E-1	3.88921990E+0
1.09361803E+3	6.86042800E-1	3.88921556E+0
1.09351378E+3	6.86140000E-1	3.88918108E+0
1.09339990E+3	6.86105100E-1	3.88919790E+0
1.09323451E+3	6.86101200E-1	3.88916914E+0
1.09305327E+3	6.86136200E-1	3.88918081E+0
1.09285073E+3	6.86089500E-1	3.88917277E+0
1.09263481E+3	6.86140000E-1	3.88921386E+0
1.09239154E+3	6.86217800E-1	3.88921400E+0
1.09203756E+3	6.86054500E-1	3.88915416E+0
1.09174568E+3	6.86116700E-1	3.88916418E+0
1.09142030E+3	6.86085600E-1	3.88916776E+0
1.09099378E+3	6.86109000E-1	3.88916838E+0
1.09059041E+3	6.86081700E-1	3.88912854E+0
1.09008073E+3	6.86237200E-1	3.88917366E+0
1.08967400E+3	6.86147800E-1	3.88920469E+0
1.08908078E+3	6.86093400E-1	3.88920116E+0
1.08855691E+3	6.86283800E-1	3.88922750E+0
1.08790817E+3	6.86120600E-1	3.88920948E+0
1.08729699E+3	6.86062300E-1	3.88920367E+0
1.08661092E+3	6.86085600E-1	3.88918462E+0
1.08593075E+3	6.86248800E-1	3.88921064E+0
1.08447991E+3	6.86256600E-1	3.88918739E+0
1.08433298E+3	6.86225600E-1	3.88918752E+0
1.08365349E+3	6.86159500E-1	3.88916089E+0
1.08273561E+3	6.86105100E-1	3.88916196E+0
1.08193796E+3	6.86276100E-1	3.88922202E+0
1.08111978E+3	6.86221600E-1	3.88921844E+0
1.08015872E+3	6.86054500E-1	3.88916934E+0
1.07924778E+3	6.86112800E-1	3.88921021E+0
1.07805817E+3	6.86128400E-1	3.88923454E+0
1.07708439E+3	6.86299400E-1	3.88920892E+0
1.07587576E+3	6.86143900E-1	3.88923137E+0
1.07477231E+3	6.86066200E-1	3.88925475E+0
1.07365392E+3	6.86260500E-1	3.88924420E+0
1.07257565E+3	6.86112800E-1	3.88921021E+0
1.07134748E+3	6.86171100E-1	3.88923745E+0
1.07009886E+3	6.86287700E-1	3.88927767E+0
1.06887433E+3	6.86112800E-1	3.88923967E+0
1.06752791E+3	6.86221600E-1	3.88926144E+0
1.06608441E+3	6.86233300E-1	3.88922831E+0
1.06472925E+3	6.86132200E-1	3.88921346E+0
1.06230798E+3	6.86229400E-1	3.88924798E+0
1.06205789E+3	6.86136200E-1	3.88921158E+0
1.06058287E+3	6.86252800E-1	3.88924062E+0
1.05754563E+3	6.86264400E-1	3.88926325E+0
1.05729230E+3	6.86233300E-1	3.88928968E+0
1.05608507E+3	6.86054500E-1	3.88929111E+0
1.05456001E+3	6.86054500E-1	3.88929151E+0
1.05130895E+3	6.86112800E-1	3.88927193E+0
1.05112739E+3	6.86175000E-1	3.88929925E+0
1.04924215E+3	6.86276100E-1	3.88928711E+0
1.04741202E+3	6.86070100E-1	3.88929896E+0
1.04572025E+3	6.86229400E-1	3.88929086E+0
1.04436559E+3	6.86295500E-1	3.88930933E+0
1.04272180E+3	6.86287700E-1	3.88930092E+0
1.04091527E+3	6.86248800E-1	3.88932860E+0
1.03924284E+3	6.86140000E-1	3.88931852E+0
1.03586717E+3	6.86136200E-1	3.88928699E+0
1.03377322E+3	6.86101200E-1	3.88928556E+0
1.03346428E+3	6.86101200E-1	3.88930957E+0
1.03204522E+3	6.86245000E-1	3.88930371E+0
1.02968848E+3	6.86268300E-1	3.88932272E+0
1.02790086E+3	6.86112800E-1	3.88934298E+0
1.02572320E+3	6.86035100E-1	3.88927272E+0
1.02388249E+3	6.86136200E-1	3.88926651E+0
1.02186648E+3	6.86097300E-1	3.88929406E+0
1.01994305E+3	6.86295500E-1	3.88927872E+0
1.01793293E+3	6.86233300E-1	3.88924129E+0
1.01435557E+3	6.86105100E-1	3.88927366E+0
1.01394887E+3	6.86233300E-1	3.88928440E+0
1.01191503E+3	6.86143900E-1	3.88929258E+0
1.00819309E+3	6.86143900E-1	3.88925010E+0
1.00783222E+3	6.86151700E-1	3.88924858E+0
1.00326171E+3	6.86089500E-1	3.88925314E+0
1.00290120E+3	6.86182800E-1	3.88926378E+0
1.00147449E+3	6.86093400E-1	3.88919938E+0
9.99205107E+2	6.86264400E-1	3.88920889E+0
9.97086614E+2	6.86074000E-1	3.88919968E+0
9.95100642E+2	6.86186700E-1	3.88925021E+0
9.92916586E+2	6.86112800E-1	3.88921430E+0
9.91068133E+2	6.86283800E-1	3.88920120E+0
9.86581864E+2	6.86248800E-1	3.88924614E+0
9.86015756E+2	6.86070100E-1	3.88920775E+0
9.84376311E+2	6.86132200E-1	3.88924688E+0
9.81748100E+2	6.86213900E-1	3.88923762E+0
9.78907788E+2	6.86241100E-1	3.88927250E+0
9.76948428E+2	6.86066200E-1	3.88924321E+0
9.73970642E+2	6.86147800E-1	3.88920708E+0
9.71722780E+2	6.86097300E-1	3.88918007E+0
9.67392269E+2	6.86120600E-1	3.88921517E+0
9.64494413E+2	6.86225600E-1	3.88921316E+0
9.64053306E+2	6.86206100E-1	3.88921374E+0
9.62420905E+2	6.86295500E-1	3.88921137E+0
9.60611809E+2	6.86097300E-1	3.88923668E+0
9.56838895E+2	6.86194400E-1	3.88922089E+0
9.54211122E+2	6.86147800E-1	3.88924191E+0
9.52071015E+2	6.86081700E-1	3.88927661E+0
9.49894255E+2	6.86109000E-1	3.88924129E+0
9.48026710E+2	6.86237200E-1	3.88928636E+0
9.44984937E+2	6.86077800E-1	3.88927961E+0
9.41241518E+2	6.86062300E-1	3.88927044E+0
9.38756037E+2	6.86105100E-1	3.88924643E+0
9.37019663E+2	6.86124500E-1	3.88923954E+0
9.34819172E+2	6.86085600E-1	3.88924191E+0
9.33042047E+2	6.86124500E-1	3.88923681E+0
9.30995286E+2	6.86155600E-1	3.88923248E+0
9.28282542E+2	6.86097300E-1	3.88923373E+0
9.25251981E+2	6.86124500E-1	3.88929374E+0
9.22384607E+2	6.86085600E-1	3.88927845E+0
9.19108276E+2	6.86190600E-1	3.88928617E+0
9.16476000E+2	6.86198400E-1	3.88927637E+0
9.14250382E+2	6.86217800E-1	3.88924453E+0
9.11618646E+2	6.86062300E-1	3.88920326E+0
9.08587815E+2	6.86050700E-1	3.88924064E+0
9.06569527E+2	6.86081700E-1	3.88920225E+0
9.04179905E+2	6.86229400E-1	3.88927460E+0
9.02027281E+2	6.86260500E-1	3.88930877E+0
8.99363799E+2	6.86272200E-1	3.88922233E+0
8.95389019E+2	6.86070100E-1	3.88924451E+0
8.92428164E+2	6.86159500E-1	3.88925721E+0
8.90002617E+2	6.86256600E-1	3.88925121E+0
8.87577205E+2	6.86128400E-1	3.88924343E+0
8.84131148E+2	6.86081700E-1	3.88925309E+0
8.80320680E+2	6.86221600E-1	3.88924039E+0
8.78106681E+2	6.86074000E-1	3.88921137E+0
8.76850229E+2	6.86245000E-1	3.88923324E+0
8.73928910E+2	6.86225600E-1	3.88920399E+0
8.70446121E+2	6.86058400E-1	3.88918758E+0
8.67468199E+2	6.86042800E-1	3.88921767E+0
8.65800026E+2	6.86074000E-1	3.88925502E+0
8.64334474E+2	6.86097300E-1	3.88920301E+0
8.61382626E+2	6.86085600E-1	3.88927688E+0
8.58966536E+2	6.86190600E-1	3.88921848E+0
8.56737812E+2	6.86136200E-1	3.88926436E+0
8.52337688E+2	6.86147800E-1	3.88923127E+0
8.49376384E+2	6.86105100E-1	3.88923355E+0
8.45865633E+2	6.86089500E-1	3.88923749E+0
8.43137761E+2	6.86074000E-1	3.88924442E+0
8.40427449E+2	6.86109000E-1	3.88921334E+0
8.37186018E+2	6.86136200E-1	3.88924518E+0
8.36009989E+2	6.86163400E-1	3.88927156E+0
8.33957420E+2	6.86186700E-1	3.88926800E+0
8.32190337E+2	6.86042800E-1	3.88928884E+0
8.29223765E+2	6.86112800E-1	3.88931563E+0
8.28101230E+2	6.86128400E-1	3.88932283E+0
8.25935752E+2	6.86210000E-1	3.88930105E+0
8.24554195E+2	6.86097300E-1	3.88926237E+0
8.20495483E+2	6.86221600E-1	3.88931639E+0
8.16652776E+2	6.86093400E-1	3.88927720E+0
8.14490561E+2	6.86054500E-1	3.88928247E+0
8.10664471E+2	6.86058400E-1	3.88925819E+0
8.07889768E+2	6.86163400E-1	3.88928332E+0
8.04456467E+2	6.86198400E-1	3.88925895E+0
8.02175206E+2	6.86081700E-1	3.88924518E+0
8.00085249E+2	6.86182800E-1	3.88924421E+0
7.97529657E+2	6.86190600E-1	3.88926599E+0
7.95768427E+2	6.86213900E-1	3.88926997E+0
7.91907617E+2	6.86093400E-1	3.88925651E+0
7.90235320E+2	6.86221600E-1	3.88930745E+0
7.87523972E+2	6.86089500E-1	3.88930870E+0
7.84070722E+2	6.86085600E-1	3.88933581E+0
7.81206224E+2	6.86077800E-1	3.88931905E+0
7.76780433E+2	6.86101200E-1	3.88932522E+0
7.76151510E+2	6.86190600E-1	3.88932383E+0
7.73639192E+2	6.86074000E-1	3.88929038E+0
7.71511920E+2	6.86062300E-1	3.88932768E+0
7.70178649E+2	6.86074000E-1	3.88932839E+0
7.67948530E+2	6.86245000E-1	3.88935241E+0
7.65178746E+2	6.86182800E-1	3.88937866E+0
7.63271001E+2	6.86077800E-1	3.88936591E+0
7.61504414E+2	6.86206100E-1	3.88936707E+0
7.59593418E+2	6.86248800E-1	3.88940719E+0
7.57056650E+2	6.86105100E-1	3.88943992E+0
7.54685950E+2	6.86190600E-1	3.88943885E+0
7.53608400E+2	6.86112800E-1	3.88939337E+0
7.50640657E+2	6.86132200E-1	3.88939561E+0
7.47466330E+2	6.86101200E-1	3.88938841E+0
7.44061668E+2	6.86217800E-1	3.88942212E+0
7.40693301E+2	6.86081700E-1	3.88946269E+0
7.37636627E+2	6.86143900E-1	3.88948710E+0
7.34988233E+2	6.86089500E-1	3.88945577E+0
7.31906387E+2	6.86132200E-1	3.88951941E+0
7.31634230E+2	6.86101200E-1	3.88953417E+0
7.29365163E+2	6.86217800E-1	3.88951637E+0
7.26827748E+2	6.86120600E-1	3.88954789E+0
7.25540452E+2	6.86241100E-1	3.88959995E+0
7.23711725E+2	6.86159500E-1	3.88956171E+0
7.21253445E+2	6.86015700E-1	3.88952392E+0
7.19390766E+2	6.86124500E-1	3.88956046E+0
7.14833448E+2	6.86221600E-1	3.88952884E+0
7.11745028E+2	6.86225600E-1	3.88950626E+0
7.09836011E+2	6.86178900E-1	3.88952299E+0
7.07225594E+2	6.86004000E-1	3.88950617E+0
7.05813703E+2	6.86213900E-1	3.88950277E+0
7.01040921E+2	6.86233300E-1	3.88949003E+0
7.00701850E+2	6.86042800E-1	3.88953233E+0
6.99747951E+2	6.86120600E-1	3.88951766E+0
6.97620321E+2	6.86217800E-1	3.88952509E+0
6.94664647E+2	6.86252800E-1	3.88954293E+0
6.91712841E+2	6.86120600E-1	3.88953470E+0
6.89252780E+2	6.86190600E-1	3.88952804E+0
6.87578909E+2	6.86085600E-1	3.88955532E+0
6.84426728E+2	6.86120600E-1	3.88955536E+0
6.83773534E+2	6.86081700E-1	3.88954557E+0
6.82590437E+2	6.86198400E-1	3.88954271E+0
6.80724290E+2	6.86074000E-1	3.88949647E+0
6.77792798E+2	6.86248800E-1	3.88951082E+0
6.74636205E+2	6.86109000E-1	3.88950577E+0
6.72527711E+2	6.86213900E-1	3.88950885E+0
6.71255951E+2	6.86085600E-1	3.88948703E+0
6.67300584E+2	6.86050700E-1	3.88952348E+0
6.64650659E+2	6.86213900E-1	3.88956829E+0
6.63528531E+2	6.86237200E-1	3.88955192E+0
6.63618454E+2	6.86233300E-1	3.88950067E+0
6.61669364E+2	6.86241100E-1	3.88951319E+0
6.59732432E+2	6.86081700E-1	3.88949830E+0
6.55843112E+2	6.86252800E-1	3.88947308E+0
6.52358751E+2	6.86237200E-1	3.88947827E+0
6.50406014E+2	6.86190600E-1	3.88948506E+0
6.48331022E+2	6.86194400E-1	3.88946807E+0
6.46150212E+2	6.86077800E-1	3.88947912E+0
6.44293297E+2	6.86077800E-1	3.88941995E+0
6.41545818E+2	6.86085600E-1	3.88941369E+0
6.38640835E+2	6.86011700E-1	3.88945421E+0
6.37211697E+2	6.86140000E-1	3.88945577E+0
6.34661016E+2	6.86116700E-1	3.88943645E+0
6.33431628E+2	6.86256600E-1	3.88943328E+0
6.31677379E+2	6.86085600E-1	3.88944428E+0
6.30109101E+2	6.86175000E-1	3.88945622E+0
6.27122537E+2	6.86151700E-1	3.88943127E+0
6.25081181E+2	6.86050700E-1	3.88945117E+0
6.23113359E+2	6.86066200E-1	3.88943310E+0
6.21346772E+2	6.86186700E-1	3.88947724E+0
6.19938167E+2	6.86101200E-1	3.88943958E+0
6.18649250E+2	6.86194400E-1	3.88941593E+0
6.17710481E+2	6.86202200E-1	3.88942501E+0
6.16032061E+2	6.86206100E-1	3.88940636E+0
6.13567791E+2	6.86167200E-1	3.88941105E+0
6.10403868E+2	6.86128400E-1	3.88939272E+0
6.09717413E+2	6.86206100E-1	3.88937617E+0
6.08907922E+2	6.86221600E-1	3.88938216E+0
6.05658657E+2	6.86077800E-1	3.88935860E+0
6.02619994E+2	6.86042800E-1	3.88937089E+0
6.00440579E+2	6.86066200E-1	3.88940502E+0
5.98929803E+2	6.86237200E-1	3.88939044E+0
5.96353816E+2	6.86097300E-1	3.88940015E+0
5.94579902E+2	6.86175000E-1	3.88943687E+0
5.93042766E+2	6.86109000E-1	3.88939001E+0
5.92229133E+2	6.86042800E-1	3.88940557E+0
5.91046756E+2	6.86101200E-1	3.88941358E+0
5.88058932E+2	6.86112800E-1	3.88937861E+0
5.86626688E+2	6.86186700E-1	3.88937051E+0
5.84280486E+2	6.86058400E-1	3.88938639E+0
5.82416277E+2	6.86105100E-1	3.88943822E+0
5.81241158E+2	6.86077800E-1	3.88940177E+0
5.80237952E+2	6.86062300E-1	3.88938402E+0
5.78432641E+2	6.86190600E-1	3.88937829E+0
5.76812669E+2	6.86198400E-1	3.88945561E+0
5.74424184E+2	6.86058400E-1	3.88941634E+0
5.73342086E+2	6.86089500E-1	3.88940296E+0
5.72267194E+2	6.86210000E-1	3.88940761E+0
5.70622141E+2	6.86039000E-1	3.88942979E+0
5.68462404E+2	6.86120600E-1	3.88942948E+0
5.67283809E+2	6.86322700E-1	3.88946749E+0
5.64397706E+2	6.86245000E-1	3.88944066E+0
5.62869504E+2	6.86074000E-1	3.88947852E+0
5.61206800E+2	6.86194400E-1	3.88948639E+0
5.59833318E+2	6.86225600E-1	3.88948209E+0
5.58358791E+2	6.86155600E-1	3.88949792E+0
5.55901861E+2	6.86245000E-1	3.88950450E+0
5.55310132E+2	6.86077800E-1	3.88951635E+0
5.54080744E+2	6.86089500E-1	3.88947360E+0
5.52756344E+2	6.86074000E-1	3.88944180E+0
5.50756371E+2	6.86225600E-1	3.88943643E+0
5.49830255E+2	6.86097300E-1	3.88946429E+0
5.47780390E+2	6.86112800E-1	3.88944623E+0
5.45502946E+2	6.86011700E-1	3.88945870E+0
5.44191000E+2	6.86085600E-1	3.88944033E+0
5.42149009E+2	6.86237200E-1	3.88947380E+0
5.39637863E+2	6.86089500E-1	3.88945426E+0
5.38369345E+2	6.86198400E-1	3.88944791E+0
5.36489103E+2	6.86229400E-1	3.88946293E+0
5.35040378E+2	6.86233300E-1	3.88942175E+0
5.34949464E+2	6.86248800E-1	3.88943154E+0
5.33514967E+2	6.86163400E-1	3.88942644E+0
5.31375673E+2	6.86210000E-1	3.88938521E+0
5.29608365E+2	6.86101200E-1	3.88937426E+0
5.28469935E+2	6.86233300E-1	3.88939344E+0
5.27171112E+2	6.86077800E-1	3.88937265E+0
5.25347968E+2	6.86077800E-1	3.88935847E+0
5.23683687E+2	6.86054500E-1	3.88939022E+0
5.21999999E+2	6.86256600E-1	3.88931809E+0
5.20934246E+2	6.86233300E-1	3.88931947E+0
5.19462420E+2	6.86171100E-1	3.88933133E+0
5.17293542E+2	6.86109000E-1	3.88925705E+0
5.16198656E+2	6.86213900E-1	3.88925025E+0
5.15179914E+2	6.86124500E-1	3.88927422E+0
5.14636096E+2	6.86221600E-1	3.88925480E+0
5.14318775E+2	6.86054500E-1	3.88926064E+0
5.12796651E+2	6.86198400E-1	3.88922053E+0
5.11060935E+2	6.86190600E-1	3.88924826E+0
5.09127341E+2	6.86237200E-1	3.88922666E+0
5.07719276E+2	6.86077800E-1	3.88924132E+0
5.07005833E+2	6.86124500E-1	3.88924070E+0
5.06015775E+2	6.86132200E-1	3.88922154E+0
5.04701687E+2	6.86101200E-1	3.88922503E+0
5.03005885E+2	6.86198400E-1	3.88923589E+0
5.01073905E+2	6.86070100E-1	3.88924994E+0
4.99311821E+2	6.86116700E-1	3.88927449E+0
4.97782673E+2	6.86237200E-1	3.88929957E+0
4.96403066E+2	6.86241100E-1	3.88929501E+0
4.95288142E+2	6.86272200E-1	3.88930516E+0
4.93890299E+2	6.86175000E-1	3.88929421E+0
4.91841018E+2	6.86202200E-1	3.88930078E+0
4.90191867E+2	6.86248800E-1	3.88931080E+0
4.89398638E+2	6.86256600E-1	3.88924117E+0
4.87654850E+2	6.86178900E-1	3.88923097E+0
4.85937300E+2	6.86109000E-1	3.88923750E+0
4.84898520E+2	6.86101200E-1	3.88923496E+0
4.84310123E+2	6.86089500E-1	3.88922726E+0
4.83435655E+2	6.86085600E-1	3.88921707E+0
4.83010669E+2	6.86171100E-1	3.88923214E+0
4.82365850E+2	6.86128400E-1	3.88925405E+0
4.81251736E+2	6.86202200E-1	3.88921326E+0
4.80908883E+2	6.86132200E-1	3.88922147E+0
4.79935486E+2	6.86089500E-1	3.88920926E+0
4.79699623E+2	6.86252800E-1	3.88923421E+0
4.79719391E+2	6.86213900E-1	3.88919191E+0
4.79224114E+2	6.86268300E-1	3.88919231E+0
4.78663950E+2	6.86074000E-1	3.88919593E+0
4.78519631E+2	6.86264400E-1	3.88917556E+0
4.78214917E+2	6.86202200E-1	3.88918067E+0
4.77828971E+2	6.86190600E-1	3.88920437E+0
4.77906737E+2	6.86140000E-1	3.88921975E+0
4.77497511E+2	6.86066200E-1	3.88918666E+0
4.77577978E+2	6.86120600E-1	3.88920043E+0
4.76992147E+2	6.86097300E-1	3.88918898E+0
4.78154848E+2	6.86252800E-1	3.88917651E+0
4.77966640E+2	6.86260500E-1	3.88912012E+0
4.77568051E+2	6.86190600E-1	3.88913036E+0
4.77724618E+2	6.86046700E-1	3.88914154E+0
4.77808868E+2	6.86202200E-1	3.88911256E+0
4.77090696E+2	6.86206100E-1	3.88908868E+0
4.77536891E+2	6.86229400E-1	3.88910093E+0
4.77884202E+2	6.86105100E-1	3.88908479E+0
4.77815487E+2	6.86120600E-1	3.88906779E+0
4.77664600E+2	6.86070100E-1	3.88903958E+0
4.77186269E+2	6.86248800E-1	3.88906202E+0
4.77263809E+2	6.86233300E-1	3.88909136E+0
4.77875937E+2	6.86229400E-1	3.88906225E+0
4.78090862E+2	6.86143900E-1	3.88909868E+0
4.77753142E+2	6.86233300E-1	3.88905011E+0
4.77683257E+2	6.86233300E-1	3.88907149E+0
4.76870388E+2	6.86217800E-1	3.88910020E+0
4.76742595E+2	6.86194400E-1	3.88908785E+0
4.76133844E+2	6.86136200E-1	3.88910825E+0
4.76621962E+2	6.86221600E-1	3.88908996E+0
4.76125874E+2	6.86233300E-1	3.88904524E+0
4.76156764E+2	6.86206100E-1	3.88906947E+0
4.76601518E+2	6.86194400E-1	3.88908361E+0
4.76990436E+2	6.86182800E-1	3.88910462E+0
4.76929151E+2	6.86109000E-1	3.88908110E+0
4.77263120E+2	6.86085600E-1	3.88908803E+0
4.77544566E+2	6.86194400E-1	3.88908705E+0
4.76430542E+2	6.86062300E-1	3.88907851E+0
4.76256143E+2	6.86027300E-1	3.88910529E+0
4.76441484E+2	6.86233300E-1	3.88909604E+0
4.77243185E+2	6.86202200E-1	3.88910784E+0
4.77733870E+2	6.86066200E-1	3.88911294E+0
4.77223825E+2	6.86159500E-1	3.88912297E+0
4.77460202E+2	6.86210000E-1	3.88912307E+0
4.77437597E+2	6.86260500E-1	3.88910594E+0
4.77898968E+2	6.86081700E-1	3.88907969E+0
4.76877298E+2	6.86093400E-1	3.88911184E+0
4.76424213E+2	6.86066200E-1	3.88910943E+0
4.75819920E+2	6.86132200E-1	3.88906922E+0
4.76024173E+2	6.86101200E-1	3.88909141E+0
4.75831583E+2	6.86101200E-1	3.88912571E+0
4.75342024E+2	6.86163400E-1	3.88912074E+0
4.76454383E+2	6.86070100E-1	3.88909847E+0
4.76516523E+2	6.86260500E-1	3.88908474E+0
4.76223608E+2	6.86206100E-1	3.88910048E+0
4.76472214E+2	6.86066200E-1	3.88909605E+0
4.77128336E+2	6.86132200E-1	3.88911821E+0
4.77171069E+2	6.86225600E-1	3.88906419E+0
4.76274918E+2	6.86252800E-1	3.88907430E+0
4.76511240E+2	6.86089500E-1	3.88909089E+0
4.76649976E+2	6.86186700E-1	3.88910824E+0
4.77150476E+2	6.86074000E-1	3.88906906E+0
4.77630624E+2	6.86062300E-1	3.88906567E+0
4.76867377E+2	6.86213900E-1	3.88906119E+0
4.76336977E+2	6.86221600E-1	3.88903526E+0
4.76688926E+2	6.86054500E-1	3.88901317E+0
4.76854388E+2	6.86190600E-1	3.88904514E+0
4.77467243E+2	6.86093400E-1	3.88902645E+0
4.76956115E+2	6.86171100E-1	3.88905314E+0
4.76272436E+2	6.86027300E-1	3.88901916E+0
4.76048145E+2	6.86175000E-1	3.88900543E+0
4.76221958E+2	6.86182800E-1	3.88900963E+0
4.76761679E+2	6.86112800E-1	3.88901008E+0
4.76330163E+2	6.86081700E-1	3.88902627E+0
4.76316699E+2	6.85988400E-1	3.88903803E+0
4.76499383E+2	6.86101200E-1	3.88907877E+0
4.76840480E+2	6.86112800E-1	3.88905149E+0
4.77163160E+2	6.86276100E-1	3.88906088E+0
4.77121508E+2	6.86202200E-1	3.88908785E+0
4.77101380E+2	6.86272200E-1	3.88904545E+0
4.77555861E+2	6.86206100E-1	3.88907550E+0
4.77338549E+2	6.86116700E-1	3.88907492E+0
4.76671530E+2	6.86136200E-1	3.88910184E+0
4.76657571E+2	6.86245000E-1	3.88906267E+0
4.76969399E+2	6.86085600E-1	3.88907041E+0
4.76609390E+2	6.86128400E-1	3.88901379E+0
4.76446011E+2	6.86143900E-1	3.88908244E+0
4.76628552E+2	6.86171100E-1	3.88908968E+0
4.76753778E+2	6.86256600E-1	3.88905077E+0
4.77058942E+2	6.86105100E-1	3.88903365E+0
4.77106898E+2	6.86233300E-1	3.88902627E+0
4.77772566E+2	6.86081700E-1	3.88902399E+0
4.77584299E+2	6.86248800E-1	3.88903942E+0
4.77641891E+2	6.86019600E-1	3.88903834E+0
4.77482622E+2	6.86085600E-1	3.88901697E+0
4.77595241E+2	6.86132200E-1	3.88900744E+0
4.77434846E+2	6.86085600E-1	3.88904317E+0
4.76985814E+2	6.86143900E-1	3.88907293E+0
4.76951741E+2	6.86194400E-1	3.88907844E+0
4.77221878E+2	6.86171100E-1	3.88904454E+0
4.77042842E+2	6.86241100E-1	3.88902531E+0
4.76663065E+2	6.86054500E-1	3.88904812E+0
4.76435262E+2	6.86221600E-1	3.88906118E+0
4.76593945E+2	6.86050700E-1	3.88906390E+0
4.76867903E+2	6.86089500E-1	3.88905514E+0
4.76884249E+2	6.86237200E-1	3.88907584E+0
4.77082288E+2	6.86221600E-1	3.88909535E+0
4.77138259E+2	6.86074000E-1	3.88906508E+0
4.77411587E+2	6.86256600E-1	3.88905721E+0
4.77071898E+2	6.86128400E-1	3.88906289E+0
4.76788791E+2	6.86143900E-1	3.88911624E+0
4.77520652E+2	6.86120600E-1	3.88910967E+0
4.77980806E+2	6.86143900E-1	3.88908588E+0
4.77808344E+2	6.86237200E-1	3.88907202E+0
4.76506277E+2	6.86039000E-1	3.88911222E+0
4.76529062E+2	6.86256600E-1	3.88906535E+0
4.76682837E+2	6.86081700E-1	3.88910667E+0
4.76409599E+2	6.86035100E-1	3.88905489E+0
4.77082382E+2	6.86190600E-1	3.88907219E+0
4.77244575E+2	6.86210000E-1	3.88908494E+0
4.77259290E+2	6.86182800E-1	3.88905990E+0
4.76635687E+2	6.86109000E-1	3.88907528E+0
4.76229523E+2	6.86128400E-1	3.88904076E+0
4.76270004E+2	6.86124500E-1	3.88904205E+0
4.76166842E+2	6.86206100E-1	3.88904782E+0
4.76063995E+2	6.86159500E-1	3.88906589E+0
4.75807463E+2	6.86066200E-1	3.88906611E+0
4.75351767E+2	6.86256600E-1	3.88904407E+0
4.75222262E+2	6.86280000E-1	3.88907228E+0
4.75242616E+2	6.86124500E-1	3.88910184E+0
4.75573073E+2	6.86109000E-1	3.88905480E+0
4.75670918E+2	6.86112800E-1	3.88906343E+0
4.75968062E+2	6.86151700E-1	3.88903195E+0
4.76152322E+2	6.86210000E-1	3.88903020E+0
4.76143046E+2	6.86085600E-1	3.88901891E+0
4.76112246E+2	6.86124500E-1	3.88903148E+0
4.76189381E+2	6.86109000E-1	3.88898922E+0
4.76115938E+2	6.86159500E-1	3.88896109E+0
4.76293129E+2	6.86081700E-1	3.88896275E+0
4.76433260E+2	6.86182800E-1	3.88897612E+0
4.76635081E+2	6.86039000E-1	3.88898591E+0
4.77092725E+2	6.86074000E-1	3.88900706E+0
4.77086281E+2	6.86175000E-1	3.88900943E+0
4.77519524E+2	6.86225600E-1	3.88903080E+0
4.77493091E+2	6.86124500E-1	3.88906881E+0
4.77608231E+2	6.86105100E-1	3.88904619E+0
4.77653801E+2	6.86070100E-1	3.88900907E+0
4.77937891E+2	6.86105100E-1	3.88898810E+0
4.77868365E+2	6.86039000E-1	3.88900491E+0
4.78032272E+2	6.86291600E-1	3.88900804E+0
4.78017547E+2	6.86198400E-1	3.88905392E+0
4.77845941E+2	6.86194400E-1	3.88900862E+0
4.78093332E+2	6.86202200E-1	3.88899574E+0
4.78091453E+2	6.86077800E-1	3.88899704E+0
4.77769305E+2	6.86194400E-1	3.88896073E+0
4.77438925E+2	6.86221600E-1	3.88899713E+0
4.77477876E+2	6.86089500E-1	3.88900558E+0
4.76944549E+2	6.86066200E-1	3.88899123E+0
4.76025772E+2	6.86229400E-1	3.88897110E+0
4.76119883E+2	6.86089500E-1	3.88896627E+0
4.76346740E+2	6.86221600E-1	3.88895925E+0
4.76506099E+2	6.86163400E-1	3.88898121E+0
4.76338545E+2	6.86097300E-1	3.88898040E+0
4.75799995E+2	6.86074000E-1	3.88897848E+0
4.76198682E+2	6.86105100E-1	3.88899404E+0
4.76274647E+2	6.86074000E-1	3.88897517E+0
4.76336787E+2	6.86210000E-1	3.88896211E+0
4.75964350E+2	6.86163400E-1	3.88897052E+0
4.76028967E+2	6.86027300E-1	3.88894986E+0
4.76474667E+2	6.86046700E-1	3.88894700E+0
4.76767492E+2	6.86054500E-1	3.88891145E+0
4.76851516E+2	6.86213900E-1	3.88893639E+0
4.76989621E+2	6.86213900E-1	3.88897082E+0
4.77088370E+2	6.86120600E-1	3.88897015E+0
4.77030057E+2	6.86058400E-1	3.88897766E+0
4.76794784E+2	6.86237200E-1	3.88896254E+0
4.76814822E+2	6.86151700E-1	3.88899125E+0
4.76890291E+2	6.86229400E-1	3.88899827E+0
4.77326939E+2	6.86202200E-1	3.88903816E+0
4.77684651E+2	6.86233300E-1	3.88904272E+0
4.77852385E+2	6.86058400E-1	3.88901943E+0
4.77430056E+2	6.86202200E-1	3.88902305E+0
4.76997055E+2	6.86202200E-1	3.88901464E+0
4.76790056E+2	6.86190600E-1	3.88902658E+0
4.76914336E+2	6.86229400E-1	3.88899170E+0
4.77048073E+2	6.86124500E-1	3.88899282E+0
4.76656612E+2	6.86256600E-1	3.88905399E+0
4.76383591E+2	6.86225600E-1	3.88903964E+0
4.76968116E+2	6.86260500E-1	3.88905690E+0
4.76922681E+2	6.86109000E-1	3.88900986E+0
4.76398676E+2	6.86074000E-1	3.88900028E+0
4.76279889E+2	6.86198400E-1	3.88905196E+0
4.75790916E+2	6.86143900E-1	3.88905415E+0
4.75882145E+2	6.86070100E-1	3.88902705E+0
4.76164884E+2	6.86136200E-1	3.88904606E+0
4.76239723E+2	6.86077800E-1	3.88904163E+0
4.76557449E+2	6.86198400E-1	3.88902880E+0
4.76980032E+2	6.86112800E-1	3.88902723E+0
4.77757007E+2	6.86252800E-1	3.88903291E+0
4.77873768E+2	6.86054500E-1	3.88903358E+0
4.77611158E+2	6.86213900E-1	3.88906337E+0
4.77164377E+2	6.86109000E-1	3.88903810E+0
4.76994797E+2	6.86070100E-1	3.88904096E+0
4.76299951E+2	6.86256600E-1	3.88906820E+0
4.76441118E+2	6.86105100E-1	3.88912526E+0
4.77483410E+2	6.86217800E-1	3.88910800E+0
4.77429014E+2	6.86097300E-1	3.88909431E+0
4.77043036E+2	6.86272200E-1	3.88910218E+0
4.77028296E+2	6.86233300E-1	3.88913867E+0
4.77166924E+2	6.86074000E-1	3.88911032E+0
4.77332136E+2	6.86120600E-1	3.88909901E+0
4.77548501E+2	6.86050700E-1	3.88913545E+0
4.77490729E+2	6.86112800E-1	3.88909869E+0
4.77008691E+2	6.86093400E-1	3.88910165E+0
4.77094021E+2	6.86116700E-1	3.88908729E+0
4.77406569E+2	6.86062300E-1	3.88906413E+0
4.77414404E+2	6.86097300E-1	3.88905916E+0
4.77256667E+2	6.86062300E-1	3.88911385E+0
4.77114092E+2	6.86070100E-1	3.88909655E+0
4.76835938E+2	6.86089500E-1	3.88908626E+0
4.76865433E+2	6.86182800E-1	3.88907133E+0
4.77022810E+2	6.86198400E-1	3.88907557E+0
4.77122955E+2	6.86120600E-1	3.88905129E+0
4.77171046E+2	6.86233300E-1	3.88907710E+0
4.77363140E+2	6.86066200E-1	3.88906748E+0
4.77487061E+2	6.86217800E-1	3.88905639E+0
4.77631425E+2	6.86245000E-1	3.88906940E+0
4.77195227E+2	6.86252800E-1	3.88906279E+0
4.77197028E+2	6.86058400E-1	3.88912696E+0
4.76653322E+2	6.86252800E-1	3.88915285E+0
4.76500289E+2	6.86089500E-1	3.88910961E+0
4.76392489E+2	6.86120600E-1	3.88907079E+0
4.76360518E+2	6.86120600E-1	3.88913697E+0
4.76219487E+2	6.86206100E-1	3.88914417E+0
4.76307429E+2	6.86252800E-1	3.88906985E+0
4.77029382E+2	6.86105100E-1	3.88905563E+0
4.77228186E+2	6.86268300E-1	3.88906891E+0
4.76768798E+2	6.86116700E-1	3.88904119E+0
4.76759837E+2	6.86252800E-1	3.88903884E+0
4.77297936E+2	6.86085600E-1	3.88906536E+0
4.77324773E+2	6.86241100E-1	3.88903714E+0
4.77463033E+2	6.86070100E-1	3.88904635E+0
4.77206979E+2	6.86233300E-1	3.88905955E+0
4.77672041E+2	6.86210000E-1	3.88904890E+0
4.77778670E+2	6.86210000E-1	3.88902918E+0
4.77970810E+2	6.86178900E-1	3.88904658E+0
4.77833471E+2	6.86307200E-1	3.88904081E+0
4.77728102E+2	6.86202200E-1	3.88906751E+0
4.77141687E+2	6.86120600E-1	3.88906236E+0
4.77811857E+2	6.86225600E-1	3.88907958E+0
4.77724050E+2	6.86163400E-1	3.88905776E+0
4.76893848E+2	6.86116700E-1	3.88905020E+0
4.76929542E+2	6.86213900E-1	3.88906205E+0
4.77386034E+2	6.86175000E-1	3.88907878E+0
4.77773420E+2	6.86097300E-1	3.88905503E+0
4.77795079E+2	6.86194400E-1	3.88909107E+0
4.78248839E+2	6.86237200E-1	3.88905136E+0
4.78267075E+2	6.86221600E-1	3.88906836E+0
4.78138652E+2	6.86089500E-1	3.88906254E+0
4.77825519E+2	6.86081700E-1	3.88910489E+0
4.77906887E+2	6.86116700E-1	3.88908396E+0
4.77400893E+2	6.86202200E-1	3.88905950E+0
4.77255944E+2	6.86143900E-1	3.88904814E+0
4.77013216E+2	6.86097300E-1	3.88907064E+0
4.77287174E+2	6.86109000E-1	3.88909492E+0
4.77289155E+2	6.86276100E-1	3.88909532E+0
4.77222692E+2	6.86140000E-1	3.88906008E+0
4.77976256E+2	6.86042800E-1	3.88908141E+0
4.78118098E+2	6.86105100E-1	3.88907430E+0
4.78479773E+2	6.86128400E-1	3.88907265E+0
4.78809927E+2	6.86066200E-1	3.88910650E+0
4.78683395E+2	6.86070100E-1	3.88910521E+0
4.78034974E+2	6.86260500E-1	3.88907927E+0
4.77194639E+2	6.86171100E-1	3.88907234E+0
4.77732609E+2	6.86233300E-1	3.88910445E+0
4.77753908E+2	6.86105100E-1	3.88908412E+0
4.77398267E+2	6.86264400E-1	3.88905268E+0
4.77376788E+2	6.86190600E-1	3.88907750E+0
4.77999903E+2	6.86081700E-1	3.88908273E+0
4.78012331E+2	6.86070100E-1	3.88908246E+0
4.77615443E+2	6.86264400E-1	3.88908103E+0
4.77736572E+2	6.86124500E-1	3.88910572E+0
4.77736707E+2	6.86105100E-1	3.88910241E+0
4.77172490E+2	6.86112800E-1	3.88908707E+0
4.76843701E+2	6.86264400E-1	3.88912351E+0
4.76715943E+2	6.86210000E-1	3.88911046E+0
4.76497361E+2	6.86237200E-1	3.88909682E+0
4.76534195E+2	6.86120600E-1	3.88911940E+0
4.76511005E+2	6.86116700E-1	3.88906319E+0
4.76458411E+2	6.86287700E-1	3.88904950E+0
4.76288786E+2	6.86307200E-1	3.88907173E+0
4.75933190E+2	6.86058400E-1	3.88905644E+0
4.75974842E+2	6.86085600E-1	3.88903546E+0
4.76405456E+2	6.86120600E-1	3.88904566E+0
4.77186578E+2	6.86213900E-1	3.88904874E+0
4.77249755E+2	6.86116700E-1	3.88907159E+0
4.76752587E+2	6.86229400E-1	3.88909928E+0
4.77069097E+2	6.86260500E-1	3.88909212E+0
4.77751200E+2	6.86089500E-1	3.88907777E+0
4.77840313E+2	6.86171100E-1	3.88908707E+0
4.78012730E+2	6.86128400E-1	3.88906600E+0
4.78465454E+2	6.86151700E-1	3.88905907E+0
4.78695058E+2	6.86194400E-1	3.88906681E+0
4.78481980E+2	6.86291600E-1	3.88907735E+0
4.77916637E+2	6.86159500E-1	3.88906098E+0
4.77888179E+2	6.86124500E-1	3.88908226E+0
4.77699191E+2	6.86252800E-1	3.88908007E+0
4.77627914E+2	6.86241100E-1	3.88910288E+0
4.77373309E+2	6.86136200E-1	3.88910078E+0
4.76795538E+2	6.86233300E-1	3.88910172E+0
4.76548553E+2	6.86256600E-1	3.88912649E+0
4.76650724E+2	6.86120600E-1	3.88914976E+0
4.76394643E+2	6.86140000E-1	3.88909476E+0
4.76124558E+2	6.86159500E-1	3.88912047E+0
4.76285898E+2	6.86186700E-1	3.88912673E+0
4.76349524E+2	6.86109000E-1	3.88909463E+0
4.76404820E+2	6.86248800E-1	3.88913411E+0
4.76526219E+2	6.86245000E-1	3.88913353E+0
4.76473458E+2	6.86248800E-1	3.88910178E+0
4.76252717E+2	6.86213900E-1	3.88911278E+0
4.76494389E+2	6.86198400E-1	3.88909096E+0
4.77471208E+2	6.86143900E-1	3.88909217E+0
4.77679423E+2	6.86163400E-1	3.88910075E+0
4.77567436E+2	6.86182800E-1	3.88913630E+0
4.76496910E+2	6.86101200E-1	3.88913138E+0
4.76522037E+2	6.86112800E-1	3.88910267E+0
4.76857730E+2	6.86128400E-1	3.88908523E+0
4.76907442E+2	6.86213900E-1	3.88906976E+0
4.76947714E+2	6.86163400E-1	3.88907262E+0
4.77084341E+2	6.86093400E-1	3.88906873E+0
4.77507893E+2	6.86136200E-1	3.88905877E+0
4.77506137E+2	6.86260500E-1	3.88903548E+0
4.77804906E+2	6.86132200E-1	3.88905842E+0
4.77790091E+2	6.86085600E-1	3.88907823E+0
4.78386639E+2	6.86252800E-1	3.88907720E+0
4.78311980E+2	6.86260500E-1	3.88909898E+0
4.78055043E+2	6.86213900E-1	3.88907018E+0
4.77816478E+2	6.86140000E-1	3.88908047E+0
4.77854168E+2	6.86120600E-1	3.88906088E+0
4.78372094E+2	6.86217800E-1	3.88903803E+0
4.78294332E+2	6.86105100E-1	3.88902345E+0
4.78383490E+2	6.86081700E-1	3.88903302E+0
4.78377772E+2	6.86116700E-1	3.88902274E+0
4.77845796E+2	6.86116700E-1	3.88901773E+0
4.77664688E+2	6.86062300E-1	3.88897980E+0
4.77559140E+2	6.86229400E-1	3.88896299E+0
4.77352005E+2	6.86109000E-1	3.88897811E+0
4.77241098E+2	6.86213900E-1	3.88897538E+0
4.76779098E+2	6.86058400E-1	3.88899179E+0
4.76844211E+2	6.86198400E-1	3.88900386E+0
4.77334714E+2	6.86202200E-1	3.88902005E+0
4.77599275E+2	6.86132200E-1	3.88897837E+0
4.77702564E+2	6.86143900E-1	3.88902761E+0
4.77312296E+2	6.86171100E-1	3.88902063E+0
4.76930222E+2	6.86058400E-1	3.88904375E+0
4.77172165E+2	6.86015700E-1	3.88902716E+0
4.78196625E+2	6.86136200E-1	3.88902868E+0
4.78228101E+2	6.86120600E-1	3.88900986E+0
4.78319285E+2	6.86085600E-1	3.88898200E+0
4.78382146E+2	6.86112800E-1	3.88900883E+0
4.78404841E+2	6.86070100E-1	3.88902408E+0
4.78530187E+2	6.86229400E-1	3.88901071E+0
4.78624157E+2	6.86136200E-1	3.88902023E+0
4.78598796E+2	6.86283800E-1	3.88903557E+0
4.78581054E+2	6.86233300E-1	3.88903722E+0
4.78700112E+2	6.86287700E-1	3.88902323E+0
4.78882930E+2	6.86217800E-1	3.88903530E+0
4.78342264E+2	6.86147800E-1	3.88903203E+0
4.77833388E+2	6.86136200E-1	3.88901247E+0
4.77381250E+2	6.86252800E-1	3.88904158E+0
4.77243100E+2	6.86252800E-1	3.88903926E+0
4.77287228E+2	6.86233300E-1	3.88902463E+0
4.77289109E+2	6.86128400E-1	3.88904498E+0
4.77258663E+2	6.86171100E-1	3.88906242E+0
4.77483941E+2	6.86081700E-1	3.88904198E+0
4.77679278E+2	6.86081700E-1	3.88906211E+0
4.78029335E+2	6.86217800E-1	3.88905289E+0
4.77781899E+2	6.86182800E-1	3.88904297E+0
4.77324267E+2	6.86140000E-1	3.88901855E+0
4.77817112E+2	6.86093400E-1	3.88904167E+0
4.77799641E+2	6.86194400E-1	3.88903800E+0
4.77106596E+2	6.86307200E-1	3.88898720E+0
4.76991411E+2	6.86268300E-1	3.88899740E+0
4.77166529E+2	6.86070100E-1	3.88902638E+0
4.77678013E+2	6.86221600E-1	3.88902459E+0
4.77208120E+2	6.86112800E-1	3.88901739E+0
4.76965187E+2	6.86128400E-1	3.88901021E+0
4.76888187E+2	6.86202200E-1	3.88901518E+0
4.77108920E+2	6.86229400E-1	3.88902457E+0
4.77526522E+2	6.86252800E-1	3.88898459E+0
4.77910937E+2	6.86280000E-1	3.88900315E+0
4.78212768E+2	6.86237200E-1	3.88903011E+0
4.78324035E+2	6.86256600E-1	3.88901768E+0
4.78306744E+2	6.86229400E-1	3.88899783E+0
4.77673176E+2	6.86050700E-1	3.88898352E+0
4.77262810E+2	6.86217800E-1	3.88902029E+0
4.76829043E+2	6.86237200E-1	3.88901345E+0
4.77181532E+2	6.86109000E-1	3.88898148E+0
4.76660499E+2	6.86237200E-1	3.88899400E+0
4.76855385E+2	6.86237200E-1	3.88902365E+0
4.76543197E+2	6.86109000E-1	3.88905714E+0
4.76023425E+2	6.86143900E-1	3.88903241E+0
4.77295530E+2	6.86245000E-1	3.88905614E+0
4.77240369E+2	6.86089500E-1	3.88899581E+0
4.76949345E+2	6.86031200E-1	3.88898794E+0
4.77155984E+2	6.86101200E-1	3.88903298E+0
4.77030488E+2	6.86272200E-1	3.88904693E+0
4.76781116E+2	6.86237200E-1	3.88902390E+0
4.76149085E+2	6.86077800E-1	3.88900733E+0
4.77711136E+2	6.86066200E-1	3.88901788E+0
4.77812795E+2	6.86077800E-1	3.88898895E+0
4.77570271E+2	6.86217800E-1	3.88896042E+0
4.77390244E+2	6.86260500E-1	3.88901086E+0
4.78151598E+2	6.86112800E-1	3.88895415E+0
4.78224456E+2	6.86198400E-1	3.88898760E+0
4.77923841E+2	6.86229400E-1	3.88900981E+0
4.78175914E+2	6.86315000E-1	3.88897493E+0
4.77849317E+2	6.86245000E-1	3.88902743E+0
4.77175999E+2	6.86155600E-1	3.88900690E+0
4.76801876E+2	6.86062300E-1	3.88897037E+0
4.76380673E+2	6.86136200E-1	3.88894054E+0
4.75993422E+2	6.86105100E-1	3.88895413E+0
4.75937361E+2	6.86077800E-1	3.88897678E+0
4.76032012E+2	6.86105100E-1	3.88894132E+0
4.76704523E+2	6.86105100E-1	3.88892415E+0
4.76797599E+2	6.86237200E-1	3.88894060E+0
4.77861729E+2	6.86120600E-1	3.88897218E+0
4.78128211E+2	6.86178900E-1	3.88894360E+0
4.77603261E+2	6.86198400E-1	3.88896976E+0
4.77240326E+2	6.86116700E-1	3.88901877E+0
4.77301250E+2	6.86109000E-1	3.88901810E+0
4.78396721E+2	6.86120600E-1	3.88902508E+0
4.78384833E+2	6.86175000E-1	3.88899105E+0
4.78534868E+2	6.86245000E-1	3.88899691E+0
4.78114727E+2	6.86159500E-1	3.88899197E+0
4.77580681E+2	6.86077800E-1	3.88898744E+0
4.77692623E+2	6.86070100E-1	3.88894577E+0
4.77822217E+2	6.86229400E-1	3.88899089E+0
4.77644082E+2	6.86093400E-1	3.88904410E+0
4.77333831E+2	6.86217800E-1	3.88904889E+0
4.77922002E+2	6.86237200E-1	3.88903046E+0
4.78128827E+2	6.86077800E-1	3.88901660E+0
4.78714582E+2	6.86085600E-1	3.88904071E+0
4.78355294E+2	6.86276100E-1	3.88904357E+0
4.78350115E+2	6.86264400E-1	3.88903091E+0
4.78330798E+2	6.86237200E-1	3.88910591E+0
4.77947644E+2	6.86058400E-1	3.88905761E+0
4.78143882E+2	6.86143900E-1	3.88901980E+0
4.77497442E+2	6.86237200E-1	3.88904883E+0
4.77575994E+2	6.86093400E-1	3.88900773E+0
4.77730303E+2	6.86198400E-1	3.88899583E+0
4.77567702E+2	6.86074000E-1	3.88904350E+0
4.77383398E+2	6.86085600E-1	3.88901193E+0
4.77807573E+2	6.86276100E-1	3.88900071E+0
4.77508219E+2	6.86109000E-1	3.88899422E+0
4.76942067E+2	6.86054500E-1	3.88896677E+0
4.76794371E+2	6.86042800E-1	3.88898716E+0
4.76812563E+2	6.86256600E-1	3.88896310E+0
4.76853224E+2	6.86109000E-1	3.88897848E+0
4.77300229E+2	6.86225600E-1	3.88896109E+0
4.77611201E+2	6.86109000E-1	3.88900312E+0
4.77460218E+2	6.86093400E-1	3.88896147E+0
4.77400779E+2	6.86260500E-1	3.88893160E+0
4.77936176E+2	6.86109000E-1	3.88895539E+0
4.77535326E+2	6.86105100E-1	3.88895861E+0
4.77664401E+2	6.86074000E-1	3.88898101E+0
4.78017069E+2	6.86248800E-1	3.88896160E+0
4.77621173E+2	6.86105100E-1	3.88896523E+0
4.77841230E+2	6.86097300E-1	3.88893061E+0
4.78632483E+2	6.86031200E-1	3.88896509E+0
4.78629421E+2	6.86046700E-1	3.88899277E+0
4.79825036E+2	6.86140000E-1	3.88897381E+0
4.81046093E+2	6.86268300E-1	3.88895400E+0
4.80588056E+2	6.86089500E-1	3.88896384E+0
4.81256695E+2	6.86085600E-1	3.88891666E+0
4.82373554E+2	6.86217800E-1	3.88894783E+0
4.83110096E+2	6.86206100E-1	3.88890606E+0
4.84101999E+2	6.86116700E-1	3.88891299E+0
4.84996549E+2	6.86206100E-1	3.88888724E+0
4.86185455E+2	6.86186700E-1	3.88894023E+0
4.87848009E+2	6.86198400E-1	3.88898276E+0
4.88367456E+2	6.86237200E-1	3.88891657E+0
4.89174650E+2	6.86190600E-1	3.88893450E+0
4.90707399E+2	6.86050700E-1	3.88892261E+0
4.92476507E+2	6.86202200E-1	3.88892999E+0
4.94103052E+2	6.86066200E-1	3.88896259E+0
4.94953339E+2	6.86287700E-1	3.88898446E+0
4.95512827E+2	6.86093400E-1	3.88898039E+0
4.97023517E+2	6.86120600E-1	3.88897582E+0
4.98395042E+2	6.86221600E-1	3.88899644E+0
4.99069760E+2	6.86116700E-1	3.88894483E+0
5.00089086E+2	6.86229400E-1	3.88898499E+0
5.01992785E+2	6.86058400E-1	3.88896809E+0
5.03025440E+2	6.86124500E-1	3.88898866E+0
5.04019369E+2	6.86229400E-1	3.88901393E+0
5.05800544E+2	6.86109000E-1	3.88898289E+0
5.07346328E+2	6.86229400E-1	3.88901491E+0
5.08822385E+2	6.86155600E-1	3.88895405E+0
5.10592168E+2	6.86066200E-1	3.88890852E+0
5.12208356E+2	6.86101200E-1	3.88894032E+0
5.13828191E+2	6.86221600E-1	3.88894358E+0
5.15172177E+2	6.86101200E-1	3.88896303E+0
5.15469865E+2	6.86081700E-1	3.88899295E+0
5.17115866E+2	6.86136200E-1	3.88900225E+0
5.18803793E+2	6.86120600E-1	3.88901129E+0
5.20702585E+2	6.86105100E-1	3.88899666E+0
5.22178687E+2	6.86050700E-1	3.88902070E+0
5.23620612E+2	6.86159500E-1	3.88899047E+0
5.24901873E+2	6.86213900E-1	3.88900505E+0
5.26108385E+2	6.86194400E-1	3.88898073E+0
5.27322192E+2	6.86233300E-1	3.88899910E+0
5.29399721E+2	6.86233300E-1	3.88901006E+0
5.29913251E+2	6.86066200E-1	3.88900192E+0
5.31952939E+2	6.86112800E-1	3.88900344E+0
5.33369017E+2	6.86287700E-1	3.88902281E+0
5.34716426E+2	6.86252800E-1	3.88901328E+0
5.36679880E+2	6.86116700E-1	3.88902862E+0
5.38178181E+2	6.86101200E-1	3.88900908E+0
5.40028341E+2	6.86109000E-1	3.88902419E+0
5.41572194E+2	6.86221600E-1	3.88903544E+0
5.42178777E+2	6.86245000E-1	3.88905574E+0
5.43158973E+2	6.86194400E-1	3.88904116E+0
5.44190367E+2	6.86101200E-1	3.88901764E+0
5.45450554E+2	6.86101200E-1	3.88907358E+0
5.47132935E+2	6.86097300E-1	3.88909491E+0
5.48646186E+2	6.86035100E-1	3.88903673E+0
5.50675202E+2	6.86105100E-1	3.88905395E+0
5.52745062E+2	6.86241100E-1	3.88911709E+0
5.54498409E+2	6.86264400E-1	3.88913051E+0
5.56662063E+2	6.86151700E-1	3.88909277E+0
5.58519519E+2	6.86132200E-1	3.88911150E+0
5.59945684E+2	6.86124500E-1	3.88910077E+0
5.61019135E+2	6.86128400E-1	3.88908590E+0
5.62133969E+2	6.86143900E-1	3.88908693E+0
5.64634099E+2	6.86248800E-1	3.88907696E+0
5.66281716E+2	6.86124500E-1	3.88907893E+0
5.68480673E+2	6.86077800E-1	3.88909123E+0
5.70305572E+2	6.86132200E-1	3.88906493E+0
5.72091161E+2	6.86120600E-1	3.88911014E+0
5.73974689E+2	6.86256600E-1	3.88911220E+0
5.75653873E+2	6.86143900E-1	3.88911166E+0
5.76923517E+2	6.86264400E-1	3.88912369E+0
5.78919221E+2	6.86280000E-1	3.88913733E+0
5.80922038E+2	6.86241100E-1	3.88912392E+0
5.83556562E+2	6.86101200E-1	3.88909901E+0
5.84409685E+2	6.86272200E-1	3.88913375E+0
5.85875611E+2	6.86264400E-1	3.88913103E+0
5.87054971E+2	6.86233300E-1	3.88911063E+0
5.88153054E+2	6.86252800E-1	3.88910558E+0
5.89506767E+2	6.86081700E-1	3.88907043E+0
5.91176350E+2	6.86058400E-1	3.88908765E+0
5.92909804E+2	6.86112800E-1	3.88905664E+0
5.97217390E+2	6.86120600E-1	3.88910945E+0
5.97621122E+2	6.86031200E-1	3.88913866E+0
5.99638792E+2	6.86182800E-1	3.88911200E+0
6.01167940E+2	6.86147800E-1	3.88910847E+0
6.02763461E+2	6.86151700E-1	3.88910726E+0
6.05023072E+2	6.86182800E-1	3.88913271E+0
6.07082992E+2	6.86202200E-1	3.88916267E+0
6.09146547E+2	6.86221600E-1	3.88914031E+0
6.10673173E+2	6.86287700E-1	3.88915923E+0
6.12743797E+2	6.86221600E-1	3.88914237E+0
6.15516382E+2	6.86283800E-1	3.88919236E+0
6.17642527E+2	6.86116700E-1	3.88918185E+0
6.20556909E+2	6.86225600E-1	3.88914308E+0
6.21580784E+2	6.86147800E-1	3.88918016E+0
6.23826167E+2	6.86264400E-1	3.88919321E+0
6.25113688E+2	6.86237200E-1	3.88919384E+0
6.26642700E+2	6.86124500E-1	3.88917023E+0
6.28705489E+2	6.86241100E-1	3.88918888E+0
6.30991263E+2	6.86268300E-1	3.88921329E+0
6.32131899E+2	6.86287700E-1	3.88923744E+0
6.34606390E+2	6.86167200E-1	3.88924294E+0
6.36985563E+2	6.86085600E-1	3.88923659E+0
6.38254627E+2	6.86093400E-1	3.88923078E+0
6.40078086E+2	6.86248800E-1	3.88920918E+0
6.41760153E+2	6.86124500E-1	3.88921942E+0
6.44238607E+2	6.86077800E-1	3.88915382E+0
6.47221883E+2	6.86159500E-1	3.88919350E+0
6.49102439E+2	6.86140000E-1	3.88917391E+0
6.51303288E+2	6.86276100E-1	3.88918688E+0
6.52836463E+2	6.86264400E-1	3.88921380E+0
6.55492374E+2	6.86128400E-1	3.88922995E+0
6.55825636E+2	6.86268300E-1	3.88923625E+0
6.58340653E+2	6.86143900E-1	3.88921262E+0
6.60437304E+2	6.86147800E-1	3.88921981E+0
6.62687820E+2	6.86217800E-1	3.88923390E+0
6.64376461E+2	6.86237200E-1	3.88918341E+0
6.67408820E+2	6.86221600E-1	3.88919651E+0
6.70164609E+2	6.86151700E-1	3.88924459E+0
6.71611848E+2	6.86155600E-1	3.88917353E+0
6.73420627E+2	6.86089500E-1	3.88918961E+0
6.76465279E+2	6.86155600E-1	3.88921640E+0
6.77310342E+2	6.86116700E-1	3.88921398E+0
6.79938789E+2	6.86136200E-1	3.88920146E+0
6.81338567E+2	6.86140000E-1	3.88921917E+0
6.83670601E+2	6.86109000E-1	3.88918281E+0
6.85160407E+2	6.86140000E-1	3.88924970E+0
6.87373729E+2	6.86124500E-1	3.88925407E+0
6.90797392E+2	6.86124500E-1	3.88925559E+0
6.96103862E+2	6.86237200E-1	3.88922554E+0
6.96536548E+2	6.86167200E-1	3.88922813E+0
6.98506577E+2	6.86276100E-1	3.88924754E+0
7.00295048E+2	6.86311100E-1	3.88926753E+0
7.01827564E+2	6.86260500E-1	3.88928445E+0
7.03783353E+2	6.86136200E-1	3.88925534E+0
7.07144108E+2	6.86260500E-1	3.88925248E+0
7.08301629E+2	6.86136200E-1	3.88924246E+0
7.10626218E+2	6.86151700E-1	3.88922578E+0
7.13031813E+2	6.86097300E-1	3.88923656E+0
7.15181328E+2	6.86159500E-1	3.88925086E+0
7.16462994E+2	6.86291600E-1	3.88923059E+0
7.18251175E+2	6.86276100E-1	3.88921704E+0
7.21393450E+2	6.86120600E-1	3.88923962E+0
7.23945437E+2	6.86241100E-1	3.88923149E+0
7.27981632E+2	6.86182800E-1	3.88928332E+0
7.28278510E+2	6.86155600E-1	3.88927799E+0
7.29641545E+2	6.86143900E-1	3.88930350E+0
7.32537150E+2	6.86276100E-1	3.88932747E+0
7.34428516E+2	6.86175000E-1	3.88928342E+0
7.36832790E+2	6.86202200E-1	3.88929894E+0
7.39296564E+2	6.86128400E-1	3.88926862E+0
7.40788788E+2	6.86186700E-1	3.88930475E+0
7.43057046E+2	6.86233300E-1	3.88935386E+0
7.45998401E+2	6.86206100E-1	3.88931938E+0
7.48821058E+2	6.86276100E-1	3.88928584E+0
7.51693293E+2	6.86202200E-1	3.88930408E+0
7.53588406E+2	6.86163400E-1	3.88932716E+0
7.55822551E+2	6.86268300E-1	3.88929076E+0
7.57853280E+2	6.86206100E-1	3.88932774E+0
7.60262119E+2	6.86155600E-1	3.88934997E+0
7.62205986E+2	6.86346100E-1	3.88933543E+0
7.64864332E+2	6.86147800E-1	3.88930458E+0
7.68132509E+2	6.86167200E-1	3.88931383E+0
7.71734983E+2	6.86167200E-1	3.88929778E+0
7.72632190E+2	6.86182800E-1	3.88928159E+0
7.75269778E+2	6.86295500E-1	3.88926700E+0
7.76920685E+2	6.86143900E-1	3.88927415E+0
7.79673592E+2	6.86210000E-1	3.88928318E+0
7.82389891E+2	6.86124500E-1	3.88929119E+0
7.85907755E+2	6.86132200E-1	3.88926529E+0
7.88831098E+2	6.86132200E-1	3.88921735E+0
7.91523261E+2	6.86089500E-1	3.88921065E+0
7.93005007E+2	6.86066200E-1	3.88921950E+0
7.94687258E+2	6.86299400E-1	3.88921999E+0
7.97647795E+2	6.86326600E-1	3.88923283E+0
8.00431728E+2	6.86260500E-1	3.88924168E+0
8.01732172E+2	6.86213900E-1	3.88923296E+0
8.03701075E+2	6.86093400E-1	3.88922666E+0
8.06677868E+2	6.86256600E-1	3.88920585E+0
8.08889029E+2	6.86159500E-1	3.88924158E+0
8.11103332E+2	6.86124500E-1	3.88925446E+0
8.13208223E+2	6.86151700E-1	3.88926944E+0
8.15012545E+2	6.86248800E-1	3.88925688E+0
8.17420664E+2	6.86272200E-1	3.88930366E+0
8.20625575E+2	6.86190600E-1	3.88929485E+0
8.23227860E+2	6.86295500E-1	3.88926658E+0
8.26136704E+2	6.86182800E-1	3.88929485E+0
8.28847003E+2	6.86155600E-1	3.88925603E+0
8.31592609E+2	6.86155600E-1	3.88925666E+0
8.34480245E+2	6.86140000E-1	3.88923953E+0
8.39375691E+2	6.86186700E-1	3.88922651E+0
8.39908882E+2	6.86112800E-1	3.88921531E+0
8.41148222E+2	6.86303300E-1	3.88924433E+0
8.43518653E+2	6.86311100E-1	3.88920909E+0
8.48429048E+2	6.86101200E-1	3.88925851E+0
8.49033341E+2	6.86128400E-1	3.88918642E+0
8.51637248E+2	6.86132200E-1	3.88917609E+0
8.53805767E+2	6.86155600E-1	3.88921343E+0
8.56679174E+2	6.86136200E-1	3.88920310E+0
8.59833518E+2	6.86112800E-1	3.88919156E+0
8.61662877E+2	6.86225600E-1	3.88920368E+0
8.63892230E+2	6.86213900E-1	3.88922376E+0
8.65561780E+2	6.86155600E-1	3.88919228E+0
8.68157303E+2	6.86109000E-1	3.88917104E+0
8.70664883E+2	6.86089500E-1	3.88918651E+0
8.73271446E+2	6.86109000E-1	3.88915592E+0
8.75403717E+2	6.86241100E-1	3.88917220E+0
8.78969989E+2	6.86272200E-1	3.88912444E+0
8.83709093E+2	6.86303300E-1	3.88915762E+0
8.84051991E+2	6.86280000E-1	3.88915941E+0
8.86214476E+2	6.86233300E-1	3.88919250E+0
8.89297754E+2	6.86291600E-1	3.88917839E+0
8.91927286E+2	6.86050700E-1	3.88918126E+0
8.94078063E+2	6.86260500E-1	3.88915680E+0
8.97121096E+2	6.86116700E-1	3.88918327E+0
8.99324603E+2	6.86147800E-1	3.88915116E+0
9.01889514E+2	6.86070100E-1	3.88913126E+0
9.04195418E+2	6.86077800E-1	3.88912272E+0
9.09280964E+2	6.86147800E-1	3.88911114E+0
9.09799926E+2	6.86128400E-1	3.88914530E+0
9.12035088E+2	6.86124500E-1	3.88912156E+0
9.14326492E+2	6.86120600E-1	3.88912303E+0
9.16489382E+2	6.86151700E-1	3.88913023E+0
9.18600534E+2	6.86124500E-1	3.88914441E+0
9.21409234E+2	6.86147800E-1	3.88911373E+0
9.23356704E+2	6.86264400E-1	3.88910488E+0
9.26297830E+2	6.86159500E-1	3.88911176E+0
9.28794742E+2	6.86105100E-1	3.88910175E+0
9.31232176E+2	6.86303300E-1	3.88911485E+0
9.33091524E+2	6.86272200E-1	3.88910032E+0
9.34685605E+2	6.86163400E-1	3.88907134E+0
9.37412622E+2	6.86081700E-1	3.88907290E+0
9.39487570E+2	6.86272200E-1	3.88904831E+0
9.41810630E+2	6.86260500E-1	3.88902080E+0
9.44584058E+2	6.86225600E-1	3.88901508E+0
9.46877842E+2	6.86151700E-1	3.88897591E+0
9.49313475E+2	6.86085600E-1	3.88902085E+0
9.51596503E+2	6.86097300E-1	3.88896491E+0
9.53963602E+2	6.86241100E-1	3.88894818E+0
9.56056066E+2	6.86109000E-1	3.88896209E+0
9.58734767E+2	6.86147800E-1	3.88897653E+0
9.61083763E+2	6.86225600E-1	3.88893933E+0
9.63160944E+2	6.86248800E-1	3.88896848E+0
9.65322662E+2	6.86085600E-1	3.88894885E+0
9.67612400E+2	6.86097300E-1	3.88895052E+0
9.69785016E+2	6.86058400E-1	3.88891792E+0
9.72172918E+2	6.86233300E-1	3.88893581E+0
9.74268309E+2	6.86136200E-1	3.88890791E+0
9.76854430E+2	6.86229400E-1	3.88891542E+0
9.79059963E+2	6.86093400E-1	3.88893751E+0
9.81351052E+2	6.86268300E-1	3.88894230E+0
9.83671769E+2	6.86252800E-1	3.88895035E+0
9.85602624E+2	6.86287700E-1	3.88895008E+0
9.87412080E+2	6.86112800E-1	3.88893988E+0
9.89554482E+2	6.86128400E-1	3.88891444E+0
9.91747587E+2	6.86229400E-1	3.88892298E+0
9.93836359E+2	6.86221600E-1	3.88895723E+0
9.95799883E+2	6.86213900E-1	3.88890411E+0
9.97842415E+2	6.86225600E-1	3.88892459E+0
9.99699647E+2	6.86035100E-1	3.88891564E+0
1.00187199E+3	6.86217800E-1	3.88890294E+0
1.00378425E+3	6.86101200E-1	3.88889887E+0
1.00599600E+3	6.86221600E-1	3.88886869E+0
1.00805149E+3	6.86175000E-1	3.88885635E+0
1.00999622E+3	6.86054500E-1	3.88884241E+0
1.01199618E+3	6.86077800E-1	3.88883141E+0
1.01382460E+3	6.86112800E-1	3.88883324E+0
1.01579324E+3	6.86221600E-1	3.88883476E+0
1.01751178E+3	6.86143900E-1	3.88881867E+0
1.01937752E+3	6.86046700E-1	3.88882430E+0
1.02123227E+3	6.86105100E-1	3.88882765E+0
1.02321905E+3	6.86206100E-1	3.88882676E+0
1.02491315E+3	6.86186700E-1	3.88883244E+0
1.02661368E+3	6.86163400E-1	3.88878531E+0
1.02855241E+3	6.86175000E-1	3.88879608E+0
1.03023696E+3	6.86093400E-1	3.88878870E+0
1.03198724E+3	6.86097300E-1	3.88880270E+0
1.03374356E+3	6.86147800E-1	3.88877705E+0
1.03543752E+3	6.86066200E-1	3.88875228E+0
1.03715489E+3	6.86206100E-1	3.88877584E+0
1.03871577E+3	6.86089500E-1	3.88882790E+0
1.04041312E+3	6.86202200E-1	3.88882919E+0
1.04191831E+3	6.86198400E-1	3.88885178E+0
1.04366900E+3	6.86163400E-1	3.88882266E+0
1.04513547E+3	6.86217800E-1	3.88885549E+0
1.04655961E+3	6.86241100E-1	3.88885231E+0
1.04828599E+3	6.86089500E-1	3.88884990E+0
1.04971954E+3	6.86097300E-1	3.88889654E+0
1.05118445E+3	6.86136200E-1	3.88887838E+0
1.05255804E+3	6.86120600E-1	3.88887087E+0
1.05410948E+3	6.86221600E-1	3.88886906E+0
1.05553447E+3	6.86190600E-1	3.88885426E+0
1.05678021E+3	6.86105100E-1	3.88886069E+0
1.05810839E+3	6.86105100E-1	3.88888171E+0
1.05950700E+3	6.86241100E-1	3.88887805E+0
1.06081865E+3	6.86178900E-1	3.88888144E+0
1.06211575E+3	6.86198400E-1	3.88887331E+0
1.06335508E+3	6.86062300E-1	3.88888390E+0
1.06462761E+3	6.86109000E-1	3.88884978E+0
1.06586546E+3	6.86124500E-1	3.88886915E+0
1.06704703E+3	6.86248800E-1	3.88892133E+0
1.06809927E+3	6.86058400E-1	3.88889915E+0
1.06927471E+3	6.86132200E-1	3.88889303E+0
1.07026734E+3	6.86143900E-1	3.88894365E+0
1.07131888E+3	6.86260500E-1	3.88893122E+0
1.07243754E+3	6.86089500E-1	3.88891722E+0
1.07337789E+3	6.86062300E-1	3.88892996E+0
1.07426645E+3	6.86221600E-1	3.88895380E+0
1.07519549E+3	6.86303300E-1	3.88896386E+0
1.07619519E+3	6.86280000E-1	3.88899280E+0
1.07788269E+3	6.86105100E-1	3.88900089E+0
1.07795708E+3	6.86198400E-1	3.88899087E+0
1.07946260E+3	6.86171100E-1	3.88898864E+0
1.07959904E+3	6.86264400E-1	3.88896315E+0
1.08030784E+3	6.86252800E-1	3.88899204E+0
1.08099305E+3	6.86050700E-1	3.88901086E+0
1.08168416E+3	6.86097300E-1	3.88897461E+0
1.08238243E+3	6.86272200E-1	3.88898754E+0
1.08290319E+3	6.86178900E-1	3.88899085E+0
1.08357492E+3	6.86264400E-1	3.88898570E+0
1.08405006E+3	6.86124500E-1	3.88900234E+0
1.08457632E+3	6.86206100E-1	3.88900288E+0
1.08500671E+3	6.86295500E-1	3.88902242E+0
1.08540490E+3	6.86132200E-1	3.88905336E+0
1.08595660E+3	6.86140000E-1	3.88907966E+0
1.08601491E+3	6.86303300E-1	3.88909969E+0
1.08639054E+3	6.86256600E-1	3.88906593E+0
