# Begin of measurement: 22.11.2018 11:34:33
# R-Sample[Ohm]	I-Coil[A]	U-Magnetometer[V]
# Kei2000	HP E3631A +6V : I	Kei2000
1.06765314E+3	-1.17189600E-2	-6.72412650E-2
1.06770419E+3	-1.15945800E-2	-6.72401917E-2
1.06770149E+3	-1.16451100E-2	-6.72453345E-2
1.06767780E+3	-1.17267300E-2	-6.71974839E-2
1.06766371E+3	-1.17694900E-2	-6.72036106E-2
1.06766659E+3	-1.16917500E-2	-6.72257918E-2
1.06768595E+3	-1.16995200E-2	-6.72355408E-2
1.06770370E+3	-1.15906900E-2	-6.72137174E-2
1.06770140E+3	-1.16023500E-2	-6.72499407E-2
1.06768546E+3	-1.16606500E-2	-6.72312030E-2
1.06768522E+3	-1.17150700E-2	-6.71846045E-2
1.06769136E+3	-1.16140100E-2	-6.71999436E-2
1.06767357E+3	-1.17461600E-2	-6.72458712E-2
1.06768591E+3	-1.15673700E-2	-6.72753865E-2
1.06767812E+3	-1.15945800E-2	-6.72699753E-2
1.06766038E+3	-1.15595900E-2	-6.73239078E-2
1.06767569E+3	-1.17150700E-2	-6.73158135E-2
1.06767380E+3	-1.17111800E-2	-6.72961813E-2
1.06767402E+3	-1.16995200E-2	-6.73046335E-2
1.06767632E+3	-1.17150700E-2	-6.72803504E-2
1.06767686E+3	-1.16839700E-2	-6.73068226E-2
1.06763266E+3	-9.26633200E-3	-6.72745772E-2
1.06764468E+3	-6.71653700E-3	-5.61406882E-2
1.06762338E+3	-4.19394800E-3	-4.32988915E-2
1.06759132E+3	-1.87347800E-3	-2.94860859E-2
1.06762527E+3	6.84091700E-4	-1.87598212E-2
1.06770993E+3	2.92293700E-3	-5.25670273E-3
1.06769566E+3	5.55435800E-3	7.94656091E-3
1.06770345E+3	8.19743900E-3	2.05486283E-2
1.06773039E+3	1.02069600E-2	3.25222854E-2
1.06772323E+3	1.27101100E-2	4.43910284E-2
1.06774588E+3	1.53298700E-2	5.83842130E-2
1.06778506E+3	1.77008700E-2	6.89531583E-2
1.06776538E+3	2.00563200E-2	8.33002151E-2
1.06775039E+3	2.24117800E-2	9.48455404E-2
1.06773903E+3	2.49810100E-2	1.07959030E-1
1.06777295E+3	2.75152600E-2	1.19704122E-1
1.06777313E+3	2.99290100E-2	1.34242090E-1
1.06778101E+3	3.22844600E-2	1.46945315E-1
1.06777088E+3	3.45271900E-2	1.58720771E-1
1.06776160E+3	3.73646200E-2	1.70701092E-1
1.06773138E+3	3.97900300E-2	1.84812249E-1
1.06773458E+3	4.21299400E-2	1.96963669E-1
1.06772626E+3	4.45670200E-2	2.07940286E-1
1.06771190E+3	4.70468500E-2	2.22251432E-1
1.06772878E+3	4.95733200E-2	2.35151248E-1
1.06775395E+3	5.18316000E-2	2.48089926E-1
1.06772441E+3	5.43036700E-2	2.59847226E-1
1.06770883E+3	5.68690100E-2	2.73128462E-1
1.06773306E+3	5.92983100E-2	2.85888572E-1
1.06776284E+3	6.17742500E-2	2.97432242E-1
1.06770602E+3	6.42657500E-2	3.10924916E-1
1.06770687E+3	6.66056500E-2	3.22943911E-1
1.06769544E+3	6.91010300E-2	3.37746432E-1
1.06767261E+3	7.17207900E-2	3.50090731E-1
1.06765455E+3	7.40490300E-2	3.61744458E-1
1.06766135E+3	7.63772800E-2	3.74268264E-1
1.06763273E+3	7.90048100E-2	3.85690071E-1
1.06762843E+3	8.15001900E-2	3.99885346E-1
1.06761861E+3	8.38789700E-2	4.12722374E-1
1.06759974E+3	8.62383000E-2	4.25685736E-1
1.06762591E+3	8.89163700E-2	4.36707385E-1
1.06761172E+3	9.11668700E-2	4.51856278E-1
1.06762816E+3	9.37827500E-2	4.63433398E-1
1.06763748E+3	9.62003800E-2	4.76450426E-1
1.06760352E+3	9.87268600E-2	4.88678675E-1
1.06763455E+3	1.01218400E-1	5.00946994E-1
1.06763617E+3	1.03608800E-1	5.13783843E-1
1.06761528E+3	1.06014800E-1	5.25890274E-1
1.06760357E+3	1.08634500E-1	5.40916409E-1
1.06761910E+3	1.11028900E-1	5.53361954E-1
1.06760681E+3	1.13427100E-1	5.65373750E-1
1.06758171E+3	1.15887500E-1	5.77075074E-1
1.06763178E+3	1.18355600E-1	5.89501300E-1
1.06762665E+3	1.21002600E-1	6.04885957E-1
1.06762273E+3	1.23319200E-1	6.17475859E-1
1.06762088E+3	1.25748500E-1	6.28371172E-1
1.06760958E+3	1.28236100E-1	6.41101765E-1
1.06759512E+3	1.30556600E-1	6.54781684E-1
1.06759900E+3	1.32982000E-1	6.65589523E-1
1.06762390E+3	1.35617300E-1	6.79024327E-1
1.06761480E+3	1.38136000E-1	6.92882587E-1
1.06760580E+3	1.40386500E-1	7.05815852E-1
1.06761034E+3	1.42796300E-1	7.16183822E-1
1.06760854E+3	1.45540500E-1	7.30743777E-1
1.06759040E+3	1.47861000E-1	7.43141754E-1
1.06757774E+3	1.50371900E-1	7.56453309E-1
1.06761551E+3	1.52824500E-1	7.68587018E-1
1.06762454E+3	1.55401500E-1	7.80810258E-1
1.06762621E+3	1.57605400E-1	7.94832509E-1
1.06759572E+3	1.60170700E-1	8.06271796E-1
1.06760846E+3	1.62728300E-1	8.20168648E-1
1.06760995E+3	1.65227600E-1	8.31985424E-1
1.06757645E+3	1.67555800E-1	8.45530016E-1
1.06759273E+3	1.70117300E-1	8.56958484E-1
1.06760432E+3	1.72686500E-1	8.70899701E-1
1.06759180E+3	1.74913700E-1	8.83384778E-1
1.06762022E+3	1.77366300E-1	8.96222251E-1
1.06761670E+3	1.79908300E-1	9.08242863E-1
1.06760261E+3	1.82326000E-1	9.20847388E-1
1.06760540E+3	1.84926300E-1	9.34415547E-1
1.06759450E+3	1.87289500E-1	9.44920585E-1
1.06763336E+3	1.89660500E-1	9.59276717E-1
1.06761679E+3	1.92342500E-1	9.72308693E-1
1.06761418E+3	1.94635700E-1	9.84416522E-1
1.06762962E+3	1.97014500E-1	9.96700669E-1
1.06761877E+3	1.99684800E-1	1.00938453E+0
1.06761877E+3	2.02051900E-1	1.02348432E+0
1.06759734E+3	2.04512300E-1	1.03601336E+0
1.06759862E+3	2.06898900E-1	1.04772598E+0
1.06761351E+3	2.09440900E-1	1.06085165E+0
1.06762734E+3	2.11788600E-1	1.07337384E+0
1.06763742E+3	2.14466600E-1	1.08533234E+0
1.06760270E+3	2.16829800E-1	1.09824239E+0
1.06760397E+3	2.19333000E-1	1.11150766E+0
1.06763148E+3	2.21824500E-1	1.12484139E+0
1.06763839E+3	2.24249900E-1	1.13617163E+0
1.06761522E+3	2.26667500E-1	1.14910788E+0
1.06763594E+3	2.29244500E-1	1.16291851E+0
1.06762589E+3	2.31697200E-1	1.17583925E+0
1.06762261E+3	2.34033200E-1	1.18665281E+0
1.06762598E+3	2.36501400E-1	1.20151053E+0
1.06763945E+3	2.39144400E-1	1.21324702E+0
1.06761887E+3	2.41566000E-1	1.22599187E+0
1.06763595E+3	2.43793200E-1	1.23766688E+0
1.06764627E+3	2.46370200E-1	1.25134483E+0
1.06763370E+3	2.48791700E-1	1.26394327E+0
1.06760867E+3	2.51236500E-1	1.27705318E+0
1.06763411E+3	2.53716400E-1	1.28858477E+0
1.06763708E+3	2.56270100E-1	1.30176154E+0
1.06759763E+3	2.58699400E-1	1.31526136E+0
1.06762279E+3	2.61241400E-1	1.32733733E+0
1.06761425E+3	2.63476300E-1	1.33981534E+0
1.06765216E+3	2.66103900E-1	1.35270541E+0
1.06762497E+3	2.68560400E-1	1.36563438E+0
1.06761132E+3	2.70880800E-1	1.37690534E+0
1.06760051E+3	2.73333500E-1	1.38987974E+0
1.06757395E+3	2.75964900E-1	1.40251942E+0
1.06759121E+3	2.78335900E-1	1.41634172E+0
1.06760075E+3	2.80839100E-1	1.42710345E+0
1.06762930E+3	2.83315000E-1	1.44086239E+0
1.06760732E+3	2.85884200E-1	1.45338418E+0
1.06757778E+3	2.88150300E-1	1.46687295E+0
1.06759188E+3	2.90599000E-1	1.47839466E+0
1.06755837E+3	2.93296500E-1	1.49292211E+0
1.06752303E+3	2.95582000E-1	1.50512286E+0
1.06752137E+3	2.98139600E-1	1.51578933E+0
1.06750330E+3	3.00611600E-1	1.52998688E+0
1.06750510E+3	3.02994300E-1	1.54271689E+0
1.06750753E+3	3.05583000E-1	1.55570453E+0
1.06750758E+3	3.07895700E-1	1.56580145E+0
1.06749200E+3	3.10220000E-1	1.58018750E+0
1.06745917E+3	3.12999100E-1	1.59182901E+0
1.06746977E+3	3.15370200E-1	1.60583521E+0
1.06746939E+3	3.17760600E-1	1.61745803E+0
1.06747065E+3	3.20392000E-1	1.63015812E+0
1.06749650E+3	3.22829100E-1	1.64361438E+0
1.06748272E+3	3.25102900E-1	1.65638290E+0
1.06749411E+3	3.27442800E-1	1.66793483E+0
1.06748425E+3	3.30307400E-1	1.68114952E+0
1.06745967E+3	3.32554100E-1	1.69396250E+0
1.06744647E+3	3.34921100E-1	1.70544983E+0
1.06742503E+3	3.37393200E-1	1.71862270E+0
1.06742265E+3	3.40028500E-1	1.73143356E+0
1.06745093E+3	3.42380100E-1	1.74403182E+0
1.06745849E+3	3.44972600E-1	1.75614867E+0
1.06745201E+3	3.47343700E-1	1.76889111E+0
1.06745993E+3	3.49959500E-1	1.78174168E+0
1.06749823E+3	3.52237200E-1	1.79534879E+0
1.06752261E+3	3.54662700E-1	1.80667373E+0
1.06758890E+3	3.57200800E-1	1.81961920E+0
1.06759556E+3	3.59692300E-1	1.83299980E+0
1.06760997E+3	3.62137200E-1	1.84535098E+0
1.06760957E+3	3.64531500E-1	1.85713153E+0
1.06762299E+3	3.67085100E-1	1.86959907E+0
1.06765869E+3	3.69495000E-1	1.88343009E+0
1.06762827E+3	3.71959300E-1	1.89474636E+0
1.06760995E+3	3.74361400E-1	1.90860537E+0
1.06764489E+3	3.77074400E-1	1.92071032E+0
1.06769852E+3	3.79336600E-1	1.93286531E+0
1.06773333E+3	3.81711500E-1	1.94506344E+0
1.06770464E+3	3.84323500E-1	1.95837074E+0
1.06771527E+3	3.86916000E-1	1.97073059E+0
1.06761427E+3	3.89213200E-1	1.98240126E+0
1.06759905E+3	3.91817400E-1	1.99636765E+0
1.06756293E+3	3.94157300E-1	2.00929626E+0
1.06754042E+3	3.96606000E-1	2.02204121E+0
1.06752290E+3	3.99008100E-1	2.03232845E+0
1.06751745E+3	4.01351900E-1	2.04649148E+0
1.06748520E+3	4.03987200E-1	2.05764893E+0
1.06748784E+3	4.06793500E-1	2.07331733E+0
1.06748805E+3	4.08950800E-1	2.08449684E+0
1.06748670E+3	4.11551100E-1	2.09754726E+0
1.06742987E+3	4.13821000E-1	2.11020192E+0
1.06742933E+3	4.16390300E-1	2.12173288E+0
1.06742829E+3	4.18675800E-1	2.13541395E+0
1.06740271E+3	4.21213900E-1	2.14704607E+0
1.06738236E+3	4.23790900E-1	2.15841859E+0
1.06737110E+3	4.26057000E-1	2.16964371E+0
1.06737831E+3	4.28610600E-1	2.18421820E+0
1.06733129E+3	4.30931100E-1	2.19681646E+0
1.06732949E+3	4.33558600E-1	2.20950237E+0
1.06732436E+3	4.36100600E-1	2.22117707E+0
1.06734778E+3	4.38475500E-1	2.24658838E+0
1.06734174E+3	4.41044800E-1	2.24808695E+0
1.06734308E+3	4.43711200E-1	2.26130404E+0
1.06732967E+3	4.45810100E-1	2.27226393E+0
1.06733017E+3	4.48461000E-1	2.28632928E+0
1.06736592E+3	4.50983500E-1	2.29808577E+0
1.06736709E+3	4.53288500E-1	2.31173142E+0
1.06732859E+3	4.55811000E-1	2.32206548E+0
1.06732310E+3	4.58182000E-1	2.33514891E+0
1.06732494E+3	4.60778500E-1	2.34801953E+0
1.06730141E+3	4.63025100E-1	2.35890438E+0
1.06729925E+3	4.65745900E-1	2.37339721E+0
1.06737170E+3	4.67899200E-1	2.38578927E+0
1.06737143E+3	4.70725000E-1	2.39841288E+0
1.06737197E+3	4.72932800E-1	2.41122068E+0
1.06736968E+3	4.75397100E-1	2.42323712E+0
1.06735662E+3	4.77880800E-1	2.43516668E+0
1.06735714E+3	4.80345100E-1	2.44748687E+0
1.06733209E+3	4.82817100E-1	2.46003915E+0
1.06732718E+3	4.85339700E-1	2.47270789E+0
1.06733655E+3	4.87656300E-1	2.48453400E+0
1.06734618E+3	4.90237200E-1	2.49624063E+0
1.06733821E+3	4.92608200E-1	2.50967377E+0
1.06734258E+3	4.95185200E-1	2.52417295E+0
1.06734140E+3	4.97672700E-1	2.53611302E+0
1.06734089E+3	5.00304200E-1	2.54913742E+0
1.06734607E+3	5.02982300E-1	2.56127832E+0
1.06739650E+3	5.05427100E-1	2.57348680E+0
1.06740663E+3	5.07837000E-1	2.58831075E+0
1.06742969E+3	5.10103000E-1	2.59866901E+0
1.06743910E+3	5.12606200E-1	2.61072400E+0
1.06743847E+3	5.15043300E-1	2.62362135E+0
1.06740801E+3	5.17495900E-1	2.63677955E+0
1.06738742E+3	5.19866900E-1	2.64731803E+0
1.06741651E+3	5.22385600E-1	2.66148539E+0
1.06744902E+3	5.24958800E-1	2.67398594E+0
1.06743407E+3	5.27524000E-1	2.68653840E+0
1.06740831E+3	5.29790100E-1	2.69832454E+0
1.06742696E+3	5.32409900E-1	2.71140273E+0
1.06741493E+3	5.34757600E-1	2.72474648E+0
1.06738456E+3	5.37210200E-1	2.73739710E+0
1.06737177E+3	5.39775500E-1	2.74975083E+0
1.06737708E+3	5.42379800E-1	2.76218693E+0
1.06737105E+3	5.44762400E-1	2.77494801E+0
1.06734241E+3	5.47110100E-1	2.78607823E+0
1.06740649E+3	5.49675400E-1	2.79873820E+0
1.06743733E+3	5.52069700E-1	2.81199443E+0
1.06745125E+3	5.54654500E-1	2.82525866E+0
1.06741511E+3	5.57021600E-1	2.83594507E+0
1.06737562E+3	5.59396500E-1	2.84979711E+0
1.06742407E+3	5.61954100E-1	2.86229175E+0
1.06742736E+3	5.64352300E-1	2.87475119E+0
1.06746113E+3	5.66909800E-1	2.88656483E+0
1.06747721E+3	5.69203100E-1	2.89912735E+0
1.06752172E+3	5.71826700E-1	2.91228895E+0
1.06749808E+3	5.74333800E-1	2.92515570E+0
1.06748263E+3	5.76572700E-1	2.93752633E+0
1.06746417E+3	5.79149700E-1	2.94921355E+0
1.06745598E+3	5.81582800E-1	2.96293920E+0
1.06745382E+3	5.84039400E-1	2.97452615E+0
1.06744900E+3	5.86457000E-1	2.98770461E+0
1.06746967E+3	5.89053400E-1	3.00030957E+0
1.06742489E+3	5.91482800E-1	3.01277612E+0
1.06735351E+3	5.93915900E-1	3.02490965E+0
1.06735572E+3	5.96508500E-1	3.03877299E+0
1.06738215E+3	5.98961100E-1	3.05043500E+0
1.06736751E+3	6.01339900E-1	3.06423338E+0
1.06733298E+3	6.03707000E-1	3.07562124E+0
1.06734158E+3	6.06097400E-1	3.08926460E+0
1.06731421E+3	6.08748200E-1	3.10228274E+0
1.06727843E+3	6.11298100E-1	3.11438397E+0
1.06729518E+3	6.13673000E-1	3.12641955E+0
1.06730437E+3	6.15970100E-1	3.13962498E+0
1.06724398E+3	6.18737600E-1	3.15261556E+0
1.06723867E+3	6.20964800E-1	3.16472346E+0
1.06724551E+3	6.23394100E-1	3.17914787E+0
1.06725227E+3	6.25866100E-1	3.19098780E+0
1.06724862E+3	6.28598600E-1	3.20493392E+0
1.06725691E+3	6.30853000E-1	3.21709744E+0
1.06726146E+3	6.33266700E-1	3.23213603E+0
1.06725047E+3	6.35847600E-1	3.24646841E+0
1.06723908E+3	6.38389600E-1	3.25952335E+0
1.06726704E+3	6.40900600E-1	3.27472169E+0
1.06726001E+3	6.43244400E-1	3.29103361E+0
1.06724796E+3	6.45751400E-1	3.30700986E+0
1.06723977E+3	6.48324500E-1	3.32525339E+0
1.06724139E+3	6.50528400E-1	3.34181798E+0
1.06724004E+3	6.53225900E-1	3.36224721E+0
1.06725657E+3	6.55729100E-1	3.38298944E+0
1.06725949E+3	6.58100100E-1	3.40624201E+0
1.06727832E+3	6.60397200E-1	3.43856792E+0
1.06727886E+3	6.62803200E-1	3.47813294E+0
1.06729290E+3	6.65415200E-1	3.50931344E+0
1.06732289E+3	6.67638500E-1	3.54841081E+0
1.06733662E+3	6.70118300E-1	3.58664639E+0
1.06733194E+3	6.72481500E-1	3.62698100E+0
1.06734378E+3	6.74735900E-1	3.66820264E+0
1.06736895E+3	6.77242900E-1	3.70494125E+0
1.06739682E+3	6.79575100E-1	3.74404466E+0
1.06741256E+3	6.82093800E-1	3.78699085E+0
1.06744293E+3	6.84390900E-1	3.82573208E+0
1.06746865E+3	6.86587000E-1	3.86038766E+0
1.06745941E+3	6.89000800E-1	3.88395237E+0
1.06748675E+3	6.91488400E-1	3.90127899E+0
1.06747297E+3	6.94018700E-1	3.91764726E+0
1.06748756E+3	6.96463600E-1	3.93025585E+0
1.06748819E+3	6.98651900E-1	3.94372195E+0
1.06746872E+3	7.01057900E-1	3.95714422E+0
1.06745945E+3	7.03366700E-1	3.97072234E+0
1.06739875E+3	7.05745500E-1	3.98266227E+0
1.06738236E+3	7.08330300E-1	3.99731177E+0
1.06733868E+3	7.10619600E-1	4.00973888E+0
1.06732332E+3	7.12769100E-1	4.02294470E+0
1.06728036E+3	7.15295600E-1	4.03554926E+0
1.06728797E+3	7.17616000E-1	4.05045799E+0
1.06729974E+3	7.20088100E-1	4.06266105E+0
1.06729402E+3	7.22634000E-1	4.07605980E+0
1.06721544E+3	7.25055500E-1	4.08955564E+0
1.06720405E+3	7.27298300E-1	4.10285645E+0
1.06719423E+3	7.29533200E-1	4.11671282E+0
1.06719463E+3	7.32102400E-1	4.12885126E+0
1.06717797E+3	7.34570600E-1	4.14228427E+0
1.06717887E+3	7.36817300E-1	4.15575788E+0
1.06717908E+3	7.39405900E-1	4.16910618E+0
1.06715210E+3	7.41594200E-1	4.18358573E+0
1.06718367E+3	7.43941900E-1	4.19636823E+0
1.06718061E+3	7.46258400E-1	4.20843105E+0
1.06715201E+3	7.48854900E-1	4.22256808E+0
1.06714508E+3	7.51105500E-1	4.23626570E+0
1.06717525E+3	7.53297600E-1	4.24842927E+0
1.06714962E+3	7.55761900E-1	4.26187091E+0
1.06711955E+3	7.58276700E-1	4.27550708E+0
1.06711212E+3	7.60756500E-1	4.28765205E+0
1.06715458E+3	7.63003200E-1	4.30058552E+0
1.06718164E+3	7.65257500E-1	4.32647162E+0
1.06723320E+3	7.67873400E-1	4.32773094E+0
1.06722370E+3	7.69937400E-1	4.34265251E+0
1.06718344E+3	7.72401600E-1	4.35369627E+0
1.06714804E+3	7.74819300E-1	4.36562010E+0
1.06712339E+3	7.77104800E-1	4.37970665E+0
1.06713555E+3	7.79339700E-1	4.39339849E+0
1.06711862E+3	7.81804000E-1	4.40385428E+0
1.06708728E+3	7.84186600E-1	4.41807740E+0
1.06709552E+3	7.86736500E-1	4.43294274E+0
1.06709529E+3	7.89169700E-1	4.44475891E+0
1.06705490E+3	7.91249200E-1	4.45870481E+0
1.06706206E+3	7.93585200E-1	4.47233682E+0
1.06706431E+3	7.95983400E-1	4.48371055E+0
1.06705706E+3	7.98572100E-1	4.49804131E+0
1.06707476E+3	8.01048000E-1	4.51125197E+0
1.06706535E+3	8.03360700E-1	4.52431116E+0
1.06707269E+3	8.05521800E-1	4.53795562E+0
1.06707129E+3	8.08036600E-1	4.55164062E+0
1.06706008E+3	8.10516500E-1	4.56446690E+0
1.06703344E+3	8.12840800E-1	4.57767948E+0
1.06705150E+3	8.15402300E-1	4.59103364E+0
1.06704119E+3	8.17819900E-1	4.60344451E+0
1.06704519E+3	8.20039400E-1	4.61738286E+0
1.06701376E+3	8.22320800E-1	4.63095494E+0
1.06697603E+3	8.24742400E-1	4.64297679E+0
1.06696324E+3	8.27195100E-1	4.65665495E+0
1.06696258E+3	8.29725500E-1	4.66993734E+0
1.06695482E+3	8.31917700E-1	4.68435982E+0
1.06694779E+3	8.34362400E-1	4.69709199E+0
1.06694820E+3	8.36749000E-1	4.71015182E+0
1.06692924E+3	8.39057800E-1	4.72294452E+0
1.06689412E+3	8.41568800E-1	4.73601005E+0
1.06692487E+3	8.44005900E-1	4.74931650E+0
1.06691708E+3	8.46236900E-1	4.76248547E+0
1.06689544E+3	8.48580700E-1	4.77531610E+0
1.06689385E+3	8.50912900E-1	4.78844804E+0
1.06687692E+3	8.53350000E-1	4.80163893E+0
1.06685508E+3	8.55958000E-1	4.82839037E+0
1.06683860E+3	8.58336700E-1	4.82972661E+0
1.06685139E+3	8.60529000E-1	4.84144553E+0
1.06683901E+3	8.62970000E-1	4.85417535E+0
1.06684491E+3	8.65274800E-1	4.86729319E+0
1.06681575E+3	8.67708000E-1	4.88058749E+0
1.06684367E+3	8.70086900E-1	4.89407872E+0
1.06682998E+3	8.72329500E-1	4.90737966E+0
1.06683691E+3	8.74743400E-1	4.92011033E+0
1.06681030E+3	8.77071600E-1	4.93320986E+0
1.06680282E+3	8.79559100E-1	4.94778028E+0
1.06677472E+3	8.82004100E-1	4.96098431E+0
1.06680358E+3	8.84336200E-1	4.97312749E+0
1.06677666E+3	8.86800400E-1	4.98681651E+0
1.06673978E+3	8.88984900E-1	5.00000972E+0
1.06674793E+3	8.91476300E-1	5.01140205E+0
1.06673744E+3	8.93851200E-1	5.02545581E+0
1.06672541E+3	8.96350500E-1	5.03891206E+0
1.06674505E+3	8.98570000E-1	5.05060173E+0
1.06673217E+3	9.00925400E-1	5.06480186E+0
1.06673884E+3	9.03288700E-1	5.07915302E+0
1.06672589E+3	9.05877200E-1	5.08942116E+0
1.06673314E+3	9.08213200E-1	5.10551923E+0
1.06670008E+3	9.10584300E-1	5.11906940E+0
1.06672620E+3	9.12974700E-1	5.13069458E+0
1.06671170E+3	9.15326300E-1	5.14426478E+0
1.06670220E+3	9.17658400E-1	5.15717254E+0
1.06670585E+3	9.20254800E-1	5.17147925E+0
1.06671072E+3	9.22520900E-1	5.18363392E+0
1.06670506E+3	9.24969600E-1	5.19831005E+0
1.06673514E+3	9.27321200E-1	5.20937875E+0
1.06671987E+3	9.29587300E-1	5.22262461E+0
1.06672555E+3	9.32008800E-1	5.23732874E+0
1.06669875E+3	9.34449800E-1	5.24925216E+0
1.06667201E+3	9.36999600E-1	5.26282818E+0
1.06670591E+3	9.39102400E-1	5.27688163E+0
1.06669211E+3	9.41465600E-1	5.28929863E+0
1.06668871E+3	9.43929900E-1	5.30240325E+0
1.06668421E+3	9.46464200E-1	5.31571962E+0
1.06667894E+3	9.48757400E-1	5.32790707E+0
1.06666309E+3	9.51108900E-1	5.34150915E+0
1.06665417E+3	9.53584900E-1	5.35530332E+0
1.06667381E+3	9.55816000E-1	5.36678825E+0
1.06669740E+3	9.58210300E-1	5.38110193E+0
1.06671154E+3	9.60659000E-1	5.39430816E+0
1.06669992E+3	9.63251500E-1	5.40727580E+0
1.06668349E+3	9.65439900E-1	5.42041503E+0
1.06665867E+3	9.67849700E-1	5.43305335E+0
1.06664733E+3	9.70146900E-1	5.44614353E+0
1.06661783E+3	9.72568400E-1	5.45940985E+0
1.06660784E+3	9.75025000E-1	5.47362783E+0
1.06661509E+3	9.77570800E-1	5.48724302E+0
1.06662229E+3	9.79654200E-1	5.49931357E+0
1.06672131E+3	9.82239100E-1	5.51180306E+0
1.06679174E+3	9.84501200E-1	5.52614085E+0
1.06681682E+3	9.84575100E-1	5.53788297E+0
1.06677827E+3	9.84676100E-1	5.54105990E+0
1.06672563E+3	9.84742200E-1	5.54113248E+0
1.06672676E+3	9.84746100E-1	5.54112363E+0
1.06669434E+3	9.84668400E-1	5.54104577E+0
1.06666408E+3	9.84672200E-1	5.54105091E+0
1.06663749E+3	9.84625500E-1	5.54102010E+0
1.06662066E+3	9.84629400E-1	5.54105154E+0
1.06666182E+3	9.84722700E-1	5.54105861E+0
1.06667200E+3	9.84606100E-1	5.54104770E+0
1.06667727E+3	9.84746100E-1	5.54101974E+0
1.06665835E+3	9.84629400E-1	5.54101040E+0
1.06665471E+3	9.84637200E-1	5.54103768E+0
1.06661486E+3	9.84726600E-1	5.54098612E+0
1.06660747E+3	9.84590500E-1	5.54097471E+0
1.06656775E+3	9.84586600E-1	5.54098433E+0
1.06654006E+3	9.84749900E-1	5.54096997E+0
