# Begin of measurement: 22.11.2018 11:40:17
# R-Sample[Ohm]	I-Coil[A]	U-Magnetometer[V]
# Kei2000	HP E3631A +6V : I	Kei2000
9.99550051E+2	-1.15673700E-2	-6.90162861E-2
9.99506194E+2	-1.16451100E-2	-6.90539404E-2
9.99471250E+2	-1.17345000E-2	-6.90642707E-2
9.99613140E+2	-1.16528800E-2	-6.90331903E-2
9.99937041E+2	-1.15790300E-2	-6.90103831E-2
9.99798979E+2	-1.15906900E-2	-6.89756356E-2
9.99733190E+2	-1.16723100E-2	-6.89850733E-2
9.99468639E+2	-1.17306200E-2	-6.90179005E-2
9.99172251E+2	-1.16995200E-2	-6.90001466E-2
9.99302478E+2	-1.17578300E-2	-6.89945119E-2
9.99338096E+2	-1.18161300E-2	-6.90050658E-2
9.99552939E+2	-1.17189600E-2	-6.90069888E-2
9.99545959E+2	-1.17383900E-2	-6.90107453E-2
9.99493544E+2	-1.15829200E-2	-6.89812300E-2
9.99398351E+2	-1.16489900E-2	-6.89872225E-2
9.99402358E+2	-1.16956300E-2	-6.89825694E-2
9.99572122E+2	-1.17461600E-2	-6.90050167E-2
9.99703609E+2	-1.15829200E-2	-6.89703586E-2
9.99706626E+2	-1.17656000E-2	-6.89768878E-2
9.99617467E+2	-1.18200200E-2	-6.89653947E-2
9.99346521E+2	-1.16684300E-2	-6.89926739E-2
9.99127045E+2	-1.16528800E-2	-6.89881125E-2
9.99200604E+2	-1.17345000E-2	-6.89906615E-2
9.99256988E+2	-1.16140100E-2	-6.89827014E-2
9.99253431E+2	-1.16645400E-2	-6.89973718E-2
9.99248433E+2	-1.17617100E-2	-6.89705867E-2
9.99174718E+2	-1.15401600E-2	-6.89914262E-2
9.99203448E+2	-1.17267300E-2	-6.89895927E-2
9.99434497E+2	-1.17111800E-2	-6.90370854E-2
9.99618625E+2	-1.17578300E-2	-6.90252346E-2
9.99717330E+2	-1.17772600E-2	-6.90242507E-2
9.99824637E+2	-1.16334500E-2	-6.90255923E-2
9.99926153E+2	-1.16528800E-2	-6.90105217E-2
9.99949963E+2	-1.17539400E-2	-6.90121745E-2
1.00016347E+3	-1.17889200E-2	-6.90653887E-2
1.00013601E+3	-1.17578300E-2	-6.90813091E-2
9.99922204E+2	-1.17811500E-2	-6.90665962E-2
9.99927968E+2	-1.16800900E-2	-6.91080964E-2
9.99923059E+2	-1.16373300E-2	-6.90923102E-2
9.99834260E+2	-1.17772600E-2	-6.90927574E-2
9.99810754E+2	-1.17772600E-2	-6.91142230E-2
9.99730421E+2	-1.15673700E-2	-6.91025958E-2
9.99580651E+2	-1.17461600E-2	-6.90652546E-2
9.99557640E+2	-1.15790300E-2	-6.91010306E-2
9.99365887E+2	-7.15186800E-3	-6.90487081E-2
9.99405244E+2	-2.40598200E-3	-4.85028011E-2
9.99357152E+2	2.38654700E-3	-2.30335307E-2
9.99342427E+2	7.13632000E-3	4.90568234E-4
9.99376514E+2	1.16606500E-2	2.29610965E-2
9.99351658E+2	1.64026500E-2	5.00207891E-2
9.99326036E+2	2.13584300E-2	7.43968185E-2
9.99419551E+2	2.60771100E-2	1.00108239E-1
9.99658591E+2	3.07025000E-2	1.21986284E-1
9.99549754E+2	3.54134000E-2	1.47260832E-1
9.99424030E+2	4.02914400E-2	1.73237176E-1
9.99668633E+2	4.50917400E-2	1.94875921E-1
9.99820429E+2	4.99114800E-2	2.21216498E-1
9.99816287E+2	5.45796300E-2	2.47491839E-1
9.99730729E+2	5.94188000E-2	2.72396505E-1
9.99530467E+2	6.40947200E-2	2.94622919E-1
9.99346609E+2	6.88911400E-2	3.19916561E-1
9.99365522E+2	7.38391400E-2	3.46238143E-1
9.99429780E+2	7.84451000E-2	3.68750051E-1
9.99730356E+2	8.31404600E-2	3.95632112E-1
9.99973834E+2	8.79990700E-2	4.18921035E-1
9.99725177E+2	9.28343500E-2	4.45076481E-1
9.99644187E+2	9.74830600E-2	4.65624321E-1
9.99646407E+2	1.02403900E-1	4.93906215E-1
9.99508570E+2	1.07145900E-1	5.20137848E-1
9.99372534E+2	1.12097700E-1	5.42850890E-1
9.99502986E+2	1.16762000E-1	5.66321152E-1
9.99855887E+2	1.21640000E-1	5.92311444E-1
9.99937931E+2	1.26393700E-1	6.16624236E-1
9.99791629E+2	1.31065700E-1	6.42707949E-1
9.99864103E+2	1.35889400E-1	6.66436113E-1
1.00029378E+3	1.40724600E-1	6.91751353E-1
1.00046102E+3	1.45381100E-1	7.16227776E-1
1.00074908E+3	1.50189200E-1	7.38116864E-1
1.00073836E+3	1.55032300E-1	7.64332994E-1
1.00060638E+3	1.59848100E-1	7.91298904E-1
1.00049804E+3	1.64827200E-1	8.14325854E-1
1.00022336E+3	1.69534200E-1	8.38656488E-1
1.00015894E+3	1.74322900E-1	8.64644590E-1
1.00014773E+3	1.79033800E-1	8.90499961E-1
1.00012242E+3	1.83923500E-1	9.13741837E-1
1.00039652E+3	1.88735400E-1	9.38024800E-1
1.00035802E+3	1.93197600E-1	9.66834749E-1
1.00026647E+3	1.98083400E-1	9.88476579E-1
1.00012733E+3	2.02910900E-1	1.01200708E+0
9.99708599E+2	2.07746200E-1	1.03750438E+0
9.99427522E+2	2.12756400E-1	1.06296974E+0
9.99559595E+2	2.17241900E-1	1.08856864E+0
9.99694685E+2	2.22201500E-1	1.10754349E+0
9.99963019E+2	2.27005700E-1	1.13557236E+0
1.00003772E+3	2.31809900E-1	1.16169726E+0
1.00013166E+3	2.36318700E-1	1.18465556E+0
1.00020604E+3	2.41189000E-1	1.20791814E+0
1.00016711E+3	2.46191400E-1	1.23349983E+0
1.00021628E+3	2.50882800E-1	1.25916590E+0
1.00046773E+3	2.55663700E-1	1.28467580E+0
1.00074633E+3	2.60479500E-1	1.30721564E+0
1.00068000E+3	2.65139900E-1	1.33266157E+0
1.00052302E+3	2.70080200E-1	1.35754258E+0
1.00045304E+3	2.74775500E-1	1.38199767E+0
1.00024354E+3	2.79676900E-1	1.40559821E+0
1.00013106E+3	2.84438300E-1	1.43222228E+0
1.00020495E+3	2.89083100E-1	1.45606908E+0
1.00016627E+3	2.93786300E-1	1.47795428E+0
1.00026214E+3	2.98843100E-1	1.50376301E+0
1.00037746E+3	3.03740600E-1	1.52965184E+0
1.00047554E+3	3.08171600E-1	1.55555475E+0
1.00070684E+3	3.13080800E-1	1.57703219E+0
1.00049970E+3	3.17857700E-1	1.60215321E+0
1.00044066E+3	3.23039000E-1	1.63086956E+0
9.99864594E+2	3.27563300E-1	1.65497494E+0
9.99620666E+2	3.32655100E-1	1.67728704E+0
9.99610445E+2	3.37350500E-1	1.70640592E+0
9.99498455E+2	3.41913700E-1	1.72714829E+0
9.99558315E+2	3.46659500E-1	1.75150214E+0
9.99612094E+2	3.51494900E-1	1.77378423E+0
9.99586697E+2	3.56213500E-1	1.79985423E+0
9.99560579E+2	3.61009900E-1	1.82462643E+0
9.99597234E+2	3.65919100E-1	1.84926533E+0
9.99614075E+2	3.71045900E-1	1.87261408E+0
9.99842828E+2	3.75480800E-1	1.90070064E+0
9.99840081E+2	3.80187800E-1	1.92333119E+0
9.99759093E+2	3.84937600E-1	1.94707339E+0
9.99925209E+2	3.89811800E-1	1.97013276E+0
9.99942140E+2	3.94977400E-1	1.99814361E+0
1.00004949E+3	3.99361800E-1	2.02250371E+0
9.99981316E+2	4.04298200E-1	2.04244975E+0
9.99712847E+2	4.08915800E-1	2.06909014E+0
9.99697717E+2	4.13638400E-1	2.09393367E+0
9.99634632E+2	4.18473600E-1	2.11864649E+0
9.99537933E+2	4.23410000E-1	2.14000394E+0
9.99609486E+2	4.28109200E-1	2.16757384E+0
9.99494209E+2	4.32940600E-1	2.19045755E+0
9.99490246E+2	4.38079100E-1	2.21772653E+0
9.99467957E+2	4.42552900E-1	2.23914585E+0
9.99390820E+2	4.47256000E-1	2.26562486E+0
9.99213132E+2	4.52289500E-1	2.28769346E+0
9.99252445E+2	4.56740000E-1	2.31334329E+0
9.99492770E+2	4.61633600E-1	2.33519481E+0
9.99339578E+2	4.66534900E-1	2.36278506E+0
9.99319585E+2	4.71257500E-1	2.38497324E+0
9.99491194E+2	4.76022900E-1	2.41059441E+0
9.99513439E+2	4.80862000E-1	2.43306150E+0
9.99288199E+2	4.85503000E-1	2.45804483E+0
9.99019901E+2	4.90334300E-1	2.48400569E+0
9.99189206E+2	4.95367900E-1	2.50512564E+0
9.99240225E+2	4.99876600E-1	2.53259201E+0
9.99250987E+2	5.04743100E-1	2.55487606E+0
9.99132693E+2	5.09636600E-1	2.57961177E+0
9.99326862E+2	5.14456300E-1	2.60182231E+0
9.99217935E+2	5.19144000E-1	2.63013617E+0
9.99133143E+2	5.23816000E-1	2.65505586E+0
9.99174751E+2	5.28662900E-1	2.67742417E+0
9.99141845E+2	5.33572000E-1	2.70194330E+0
9.99081910E+2	5.38310200E-1	2.72731207E+0
9.98806192E+2	5.43192100E-1	2.75002732E+0
9.98795880E+2	5.47798100E-1	2.77531080E+0
9.98884544E+2	5.52831600E-1	2.79702155E+0
9.98873692E+2	5.57453100E-1	2.82258082E+0
9.98720995E+2	5.62296100E-1	2.84847742E+0
9.98609081E+2	5.67135300E-1	2.87570575E+0
9.98750340E+2	5.72133800E-1	2.89588969E+0
9.98792758E+2	5.76704800E-1	2.92308077E+0
9.98746962E+2	5.81431300E-1	2.94800010E+0
9.98622319E+2	5.86305400E-1	2.97239772E+0
9.98670727E+2	5.91035700E-1	2.99565046E+0
9.98908350E+2	5.95762200E-1	3.02418906E+0
9.99217682E+2	6.00760700E-1	3.04729418E+0
9.99359329E+2	6.05347300E-1	3.07405102E+0
9.99534451E+2	6.10306900E-1	3.10059360E+0
9.99705655E+2	6.15153800E-1	3.13007172E+0
9.99779189E+2	6.19876400E-1	3.16144574E+0
9.99882217E+2	6.24692200E-1	3.19145169E+0
1.00015789E+3	6.29512000E-1	3.23227712E+0
1.00021338E+3	6.34378400E-1	3.29078739E+0
1.00011190E+3	6.39023300E-1	3.36493714E+0
9.99971855E+2	6.44033400E-1	3.43478602E+0
1.00000126E+3	6.48546100E-1	3.52327277E+0
1.00001490E+3	6.53455200E-1	3.60284422E+0
1.00005448E+3	6.58360500E-1	3.66984186E+0
9.99968973E+2	6.63184100E-1	3.72083207E+0
1.00001166E+3	6.67665700E-1	3.75297046E+0
1.00020991E+3	6.72353300E-1	3.77943094E+0
1.00037355E+3	6.76947500E-1	3.80279409E+0
1.00019159E+3	6.81600100E-1	3.83065897E+0
1.00014516E+3	6.86408200E-1	3.85558453E+0
1.00019663E+3	6.91053100E-1	3.88259820E+0
1.00020032E+3	6.95705700E-1	3.90738257E+0
1.00017402E+3	7.00276600E-1	3.93339504E+0
1.00006483E+3	7.04968100E-1	3.95780259E+0
1.00002042E+3	7.09612900E-1	3.98349361E+0
1.00012061E+3	7.14106100E-1	4.01432400E+0
1.00008819E+3	7.18580000E-1	4.03470563E+0
9.99946483E+2	7.23306400E-1	4.06242691E+0
9.99898796E+2	7.27959100E-1	4.08550770E+0
9.99815356E+2	7.32635000E-1	4.11211427E+0
9.99914016E+2	7.37353600E-1	4.13771930E+0
1.00021481E+3	7.41870200E-1	4.16339373E+0
9.99998614E+2	7.46448900E-1	4.18952408E+0
9.99885949E+2	7.51187000E-1	4.21713288E+0
9.99852942E+2	7.55816400E-1	4.24281505E+0
1.00004914E+3	7.60531100E-1	4.26610414E+0
1.00029374E+3	7.65141000E-1	4.29308163E+0
1.00033035E+3	7.69408800E-1	4.31857257E+0
1.00036264E+3	7.73905900E-1	4.33917827E+0
1.00022183E+3	7.78675100E-1	4.36696907E+0
1.00025072E+3	7.83374300E-1	4.39525006E+0
1.00014999E+3	7.88061900E-1	4.41611089E+0
1.00002363E+3	7.92520200E-1	4.44460551E+0
1.00015291E+3	7.97130000E-1	4.47219343E+0
1.00005560E+3	8.01848700E-1	4.49238847E+0
9.99807579E+2	8.06582900E-1	4.52391158E+0
9.99560635E+2	8.11297700E-1	4.54945324E+0
9.99496197E+2	8.15946400E-1	4.57202699E+0
9.99520198E+2	8.20599000E-1	4.60109836E+0
9.99347463E+2	8.25239900E-1	4.62613181E+0
9.99136542E+2	8.29733200E-1	4.64904499E+0
9.98906935E+2	8.34541200E-1	4.67808681E+0
9.98699707E+2	8.39205600E-1	4.70395332E+0
9.98615906E+2	8.43831000E-1	4.72620182E+0
9.98673650E+2	8.48160900E-1	4.75460409E+0
9.98762962E+2	8.52829100E-1	4.77898046E+0
9.98936373E+2	8.57555500E-1	4.79935442E+0
9.99058449E+2	8.62118700E-1	4.83146436E+0
9.99074390E+2	8.66888000E-1	4.85409176E+0
9.99357538E+2	8.71357800E-1	4.87704255E+0
9.99628168E+2	8.76142600E-1	4.90608602E+0
9.99431612E+2	8.80740700E-1	4.93377491E+0
9.99358584E+2	8.85374000E-1	4.95600060E+0
9.99252487E+2	8.89968200E-1	4.98374047E+0
9.99013063E+2	8.94772400E-1	5.00917555E+0
9.98726942E+2	8.99296800E-1	5.03319924E+0
9.98796108E+2	9.03863800E-1	5.05972853E+0
9.99060164E+2	9.08559200E-1	5.08802204E+0
9.99210474E+2	9.13235100E-1	5.11039647E+0
9.99088848E+2	9.18051100E-1	5.13813867E+0
9.98909950E+2	9.22381000E-1	5.16257653E+0
9.98748929E+2	9.27041300E-1	5.18660185E+0
9.98664408E+2	9.31756100E-1	5.21244434E+0
9.98715922E+2	9.36230000E-1	5.24019043E+0
9.98880417E+2	9.40944800E-1	5.26552749E+0
9.99096381E+2	9.45772300E-1	5.28899769E+0
9.99020820E+2	9.50257700E-1	5.31677576E+0
9.98894511E+2	9.54995800E-1	5.34231160E+0
9.98973974E+2	9.59454100E-1	5.36831225E+0
9.99123988E+2	9.64203800E-1	5.39301179E+0
9.99415692E+2	9.68988600E-1	5.41624865E+0
9.99479049E+2	9.73520700E-1	5.44463612E+0
9.99104445E+2	9.78161600E-1	5.46885279E+0
9.98997679E+2	9.82845400E-1	5.49423005E+0
9.98989529E+2	9.84668400E-1	5.51887050E+0
9.99060727E+2	9.84637200E-1	5.53161653E+0
9.99086799E+2	9.84656600E-1	5.53335968E+0
9.99102020E+2	9.84625500E-1	5.53336205E+0
9.99040689E+2	9.84571100E-1	5.53331057E+0
9.98948512E+2	9.84816000E-1	5.53328705E+0
9.98812927E+2	9.84621600E-1	5.53331151E+0
9.98823464E+2	9.84714900E-1	5.53332739E+0
9.98956618E+2	9.84753800E-1	5.53327046E+0
9.98986112E+2	9.84664300E-1	5.53329053E+0
9.98841521E+2	9.84773300E-1	5.53329756E+0
9.98723993E+2	9.84672200E-1	5.53327819E+0
9.98741901E+2	9.84784900E-1	5.53327833E+0
9.98917025E+2	9.84641100E-1	5.53326357E+0
9.98961154E+2	9.84645000E-1	5.53328759E+0
9.99225345E+2	9.84652800E-1	5.53328128E+0
9.99275644E+2	9.84781100E-1	5.53325557E+0
