# Begin of measurement: 22.11.2018 12:49:15
# R-Sample[Ohm]	I-Coil[A]	U-Magnetometer[V]
# Kei2000	HP E3631A +6V : I	Kei2000
1.08831917E+3	2.67837400E-1	1.37697359E+0
1.08844039E+3	2.67880200E-1	1.37699935E+0
1.08858768E+3	2.67915200E-1	1.37698334E+0
1.08882948E+3	2.67934600E-1	1.37703614E+0
1.08884209E+3	2.67946200E-1	1.37699487E+0
1.08907832E+3	2.67802500E-1	1.37701661E+0
1.08918544E+3	2.67915200E-1	1.37698132E+0
1.08919724E+3	2.67930700E-1	1.37698235E+0
1.08932386E+3	2.67783000E-1	1.37699215E+0
1.08945161E+3	2.67887900E-1	1.37698311E+0
1.08963844E+3	2.67954000E-1	1.37701196E+0
1.08965757E+3	2.67930700E-1	1.37703329E+0
1.08981463E+3	2.67860700E-1	1.37702819E+0
1.08996125E+3	2.67786900E-1	1.37704268E+0
1.09017275E+3	2.67930700E-1	1.37702806E+0
1.09019356E+3	2.67872400E-1	1.37700883E+0
1.09031649E+3	2.67954000E-1	1.37702788E+0
1.09040501E+3	2.67728600E-1	1.37699868E+0
1.09041380E+3	2.67751900E-1	1.37698325E+0
1.09041767E+3	2.67907400E-1	1.37699501E+0
1.09041112E+3	2.67837400E-1	1.37703664E+0
1.09037815E+3	2.67821900E-1	1.37702801E+0
1.09030314E+3	2.67915200E-1	1.37701437E+0
1.09017124E+3	2.67911300E-1	1.37700605E+0
1.09006804E+3	2.67942400E-1	1.37700221E+0
1.08989220E+3	2.67911300E-1	1.37703217E+0
1.08965777E+3	2.67884100E-1	1.37701777E+0
1.08942196E+3	2.67907400E-1	1.37701992E+0
1.08915669E+3	2.67748000E-1	1.37700324E+0
1.08883554E+3	2.67763600E-1	1.37696822E+0
1.08847485E+3	2.67965700E-1	1.37703468E+0
1.08808530E+3	2.67821900E-1	1.37703723E+0
1.08765541E+3	2.67934600E-1	1.37704729E+0
1.08715585E+3	2.67950200E-1	1.37704420E+0
1.08666093E+3	2.67748000E-1	1.37702703E+0
1.08609101E+3	2.67775200E-1	1.37706093E+0
1.08493894E+3	2.67794700E-1	1.37706974E+0
1.08481457E+3	2.67887900E-1	1.37703758E+0
1.08425323E+3	2.67891900E-1	1.37701357E+0
1.08288051E+3	2.67767500E-1	1.37700136E+0
1.08274231E+3	2.67821900E-1	1.37701871E+0
1.08194313E+3	2.67996800E-1	1.37702466E+0
1.08118188E+3	2.67891900E-1	1.37706361E+0
1.08036825E+3	2.67775200E-1	1.37705118E+0
1.07946622E+3	2.67915200E-1	1.37706079E+0
1.07850079E+3	2.67767500E-1	1.37708843E+0
1.07751311E+3	2.67790800E-1	1.37707269E+0
1.07646758E+3	2.67775200E-1	1.37704666E+0
1.07543757E+3	2.67868500E-1	1.37709093E+0
1.07436632E+3	2.67786900E-1	1.37707890E+0
1.07327951E+3	2.67926800E-1	1.37712788E+0
1.07211911E+3	2.67829700E-1	1.37713418E+0
1.07085990E+3	2.67829700E-1	1.37714853E+0
1.06972723E+3	2.67919100E-1	1.37717438E+0
1.06848690E+3	2.67915200E-1	1.37716441E+0
1.06717105E+3	2.67992900E-1	1.37716633E+0
1.06574506E+3	2.67934600E-1	1.37720081E+0
1.06437139E+3	2.67969600E-1	1.37721342E+0
1.06297390E+3	2.67942400E-1	1.37724790E+0
1.06164008E+3	2.67779100E-1	1.37721445E+0
1.06010598E+3	2.67926800E-1	1.37721271E+0
1.05871434E+3	2.67965700E-1	1.37722286E+0
1.05707388E+3	2.67891900E-1	1.37721194E+0
1.05554801E+3	2.67829700E-1	1.37723225E+0
1.05385629E+3	2.67954000E-1	1.37722004E+0
1.05241469E+3	2.67794700E-1	1.37720327E+0
1.05075509E+3	2.67829700E-1	1.37719683E+0
1.04927159E+3	2.67798500E-1	1.37717013E+0
1.04779265E+3	2.67907400E-1	1.37716557E+0
1.04625431E+3	2.67810200E-1	1.37719272E+0
1.04471552E+3	2.67751900E-1	1.37719567E+0
1.04286314E+3	2.67934600E-1	1.37714509E+0
1.04099557E+3	2.67981200E-1	1.37717912E+0
1.03903675E+3	2.67860700E-1	1.37715900E+0
1.03700128E+3	2.67899600E-1	1.37716611E+0
1.03505889E+3	2.67814100E-1	1.37717219E+0
1.03320008E+3	2.67915200E-1	1.37717586E+0
1.03126544E+3	2.67841300E-1	1.37718368E+0
1.02935732E+3	2.67810200E-1	1.37716021E+0
1.02786343E+3	2.67771300E-1	1.37715144E+0
1.02599011E+3	2.67825700E-1	1.37719097E+0
1.02429674E+3	2.67895700E-1	1.37717639E+0
1.02244099E+3	2.67907400E-1	1.37719223E+0
1.02053602E+3	2.67818000E-1	1.37719898E+0
1.01810691E+3	2.67821900E-1	1.37721682E+0
1.01533508E+3	2.67899600E-1	1.37722223E+0
1.01279780E+3	2.67954000E-1	1.37724522E+0
1.01057105E+3	2.67786900E-1	1.37717845E+0
1.00849681E+3	2.67899600E-1	1.37727062E+0
1.00374202E+3	2.67934600E-1	1.37729235E+0
1.00308248E+3	2.67849100E-1	1.37722290E+0
1.00145228E+3	2.67954000E-1	1.37722818E+0
9.99576173E+2	2.67957900E-1	1.37726566E+0
9.97654678E+2	2.67829700E-1	1.37726226E+0
9.95663073E+2	2.67942400E-1	1.37725573E+0
9.94011439E+2	2.67930700E-1	1.37722769E+0
9.91592145E+2	2.67957900E-1	1.37728171E+0
9.88791225E+2	2.67965700E-1	1.37726051E+0
9.85869853E+2	2.67790800E-1	1.37724522E+0
9.83863342E+2	2.67961800E-1	1.37731333E+0
9.80996951E+2	2.67837400E-1	1.37725054E+0
9.78275148E+2	2.67985100E-1	1.37727540E+0
9.75855943E+2	2.67954000E-1	1.37724821E+0
9.73274993E+2	2.67821900E-1	1.37723569E+0
9.71244032E+2	2.67821900E-1	1.37723739E+0
9.69624009E+2	2.67922900E-1	1.37725904E+0
9.67071427E+2	2.67957900E-1	1.37721766E+0
9.64407848E+2	2.67907400E-1	1.37721494E+0
9.61726391E+2	2.67821900E-1	1.37724911E+0
9.60012437E+2	2.67829700E-1	1.37721834E+0
9.58098642E+2	2.67915200E-1	1.37718453E+0
9.55359279E+2	2.67853000E-1	1.37719250E+0
9.52484106E+2	2.67779100E-1	1.37720001E+0
9.49003918E+2	2.67934600E-1	1.37722201E+0
9.45820159E+2	2.67930700E-1	1.37723395E+0
9.42965025E+2	2.67821900E-1	1.37722362E+0
9.40251878E+2	2.67810200E-1	1.37720797E+0
9.37635874E+2	2.67794700E-1	1.37726521E+0
9.35340906E+2	2.67860700E-1	1.37720470E+0
9.32873880E+2	2.67946200E-1	1.37719710E+0
9.31308973E+2	2.67938500E-1	1.37720157E+0
9.29275581E+2	2.67926800E-1	1.37722653E+0
9.26043550E+2	2.67849100E-1	1.37716450E+0
9.24806906E+2	2.67922900E-1	1.37718203E+0
9.21553121E+2	2.67887900E-1	1.37721879E+0
9.18515574E+2	2.67841300E-1	1.37719856E+0
9.15373244E+2	2.67903500E-1	1.37719786E+0
9.12424045E+2	2.67899600E-1	1.37720595E+0
9.09937342E+2	2.67825700E-1	1.37721722E+0
9.05997767E+2	2.67810200E-1	1.37725126E+0
9.02948468E+2	2.67821900E-1	1.37726270E+0
9.00771793E+2	2.67922900E-1	1.37725103E+0
8.98963593E+2	2.67880200E-1	1.37722232E+0
8.95877414E+2	2.68016200E-1	1.37730675E+0
8.92148171E+2	2.67814100E-1	1.37731257E+0
8.91638033E+2	2.67779100E-1	1.37732943E+0
8.87975299E+2	2.67837400E-1	1.37733873E+0
8.83432870E+2	2.67798500E-1	1.37730295E+0
8.81538970E+2	2.67837400E-1	1.37731487E+0
8.78455003E+2	2.67965700E-1	1.37733618E+0
8.75691101E+2	2.67837400E-1	1.37734262E+0
8.73137260E+2	2.67802500E-1	1.37733792E+0
8.70612778E+2	2.67938500E-1	1.37734892E+0
8.68828939E+2	2.67880200E-1	1.37731932E+0
8.66134562E+2	2.67860700E-1	1.37734611E+0
8.63556855E+2	2.67915200E-1	1.37735626E+0
8.61378153E+2	2.67775200E-1	1.37734736E+0
8.58337872E+2	2.67985100E-1	1.37737974E+0
8.54679774E+2	2.67922900E-1	1.37735170E+0
8.51259162E+2	2.67926800E-1	1.37735559E+0
8.48447436E+2	2.67810200E-1	1.37734231E+0
8.45609414E+2	2.67794700E-1	1.37732276E+0
8.42712493E+2	2.67786900E-1	1.37728618E+0
8.39266393E+2	2.67930700E-1	1.37730416E+0
8.37960884E+2	2.67837400E-1	1.37729459E+0
8.34388342E+2	2.67946200E-1	1.37728922E+0
8.31767451E+2	2.67919100E-1	1.37733502E+0
8.30070653E+2	2.67802500E-1	1.37728305E+0
8.27320168E+2	2.67833500E-1	1.37729115E+0
8.23507394E+2	2.67825700E-1	1.37730680E+0
8.20449268E+2	2.67849100E-1	1.37733345E+0
8.17165414E+2	2.67833500E-1	1.37729718E+0
8.14782840E+2	2.67779100E-1	1.37729714E+0
8.12147314E+2	2.67880200E-1	1.37733603E+0
8.09713656E+2	2.67810200E-1	1.37732536E+0
8.06290386E+2	2.67946200E-1	1.37734186E+0
8.04181929E+2	2.67946200E-1	1.37732746E+0
8.02170781E+2	2.67814100E-1	1.37733394E+0
7.99336977E+2	2.67841300E-1	1.37731163E+0
7.96368531E+2	2.67954000E-1	1.37727107E+0
7.93266861E+2	2.67779100E-1	1.37731015E+0
7.91650081E+2	2.67775200E-1	1.37736024E+0
7.89348493E+2	2.67814100E-1	1.37731140E+0
7.86495340E+2	2.67915200E-1	1.37734159E+0
7.84136655E+2	2.67751900E-1	1.37736744E+0
7.81676473E+2	2.67798500E-1	1.37737920E+0
7.79477147E+2	2.67759700E-1	1.37734825E+0
7.77416062E+2	2.67853000E-1	1.37733479E+0
7.73482205E+2	2.67957900E-1	1.37737821E+0
7.69645431E+2	2.67922900E-1	1.37739794E+0
7.66285563E+2	2.67806300E-1	1.37736793E+0
7.64695936E+2	2.67821900E-1	1.37736972E+0
7.62799208E+2	2.67899600E-1	1.37737502E+0
7.60061474E+2	2.67806300E-1	1.37738465E+0
7.57822175E+2	2.67790800E-1	1.37738599E+0
7.56622457E+2	2.67849100E-1	1.37741207E+0
7.55038549E+2	2.67957900E-1	1.37738501E+0
7.50743330E+2	2.67771300E-1	1.37743764E+0
7.48114785E+2	2.67802500E-1	1.37745316E+0
7.45029686E+2	2.68020100E-1	1.37748626E+0
7.42843432E+2	2.67957900E-1	1.37748782E+0
7.40767442E+2	2.67790800E-1	1.37747982E+0
7.40125999E+2	2.67981200E-1	1.37749533E+0
7.37021043E+2	2.67786900E-1	1.37752565E+0
7.33964630E+2	2.67763600E-1	1.37752437E+0
7.30598639E+2	2.67798500E-1	1.37753943E+0
7.27517189E+2	2.67829700E-1	1.37757516E+0
7.24323120E+2	2.67810200E-1	1.37760177E+0
7.21871991E+2	2.67775200E-1	1.37758942E+0
7.19935683E+2	2.67767500E-1	1.37760758E+0
7.18670223E+2	2.67919100E-1	1.37760315E+0
7.16169291E+2	2.67818000E-1	1.37765087E+0
7.14260721E+2	2.67895700E-1	1.37763302E+0
7.10108202E+2	2.67954000E-1	1.37762462E+0
7.09639537E+2	2.67759700E-1	1.37764845E+0
7.08121641E+2	2.67915200E-1	1.37764112E+0
7.05437350E+2	2.67973400E-1	1.37764429E+0
7.03184711E+2	2.67818000E-1	1.37767841E+0
7.01086432E+2	2.67915200E-1	1.37770234E+0
6.98190593E+2	2.67798500E-1	1.37777179E+0
6.94874180E+2	2.67907400E-1	1.37779934E+0
6.94092605E+2	2.67946200E-1	1.37782201E+0
6.91852844E+2	2.67829700E-1	1.37785510E+0
6.88276609E+2	2.67911300E-1	1.37788812E+0
6.85414215E+2	2.67841300E-1	1.37793734E+0
6.82736273E+2	2.67961800E-1	1.37796726E+0
6.80428293E+2	2.67868500E-1	1.37803711E+0
6.78299484E+2	2.67965700E-1	1.37801811E+0
6.76275909E+2	2.67957900E-1	1.37803832E+0
6.73635297E+2	2.67845200E-1	1.37814457E+0
6.72028775E+2	2.67977400E-1	1.37818035E+0
6.69188604E+2	2.67837400E-1	1.37824470E+0
6.67247748E+2	2.67989000E-1	1.37836477E+0
6.66412273E+2	2.67806300E-1	1.37843637E+0
6.62491656E+2	2.67786900E-1	1.37855121E+0
6.60474881E+2	2.67779100E-1	1.37871099E+0
6.59731581E+2	2.67794700E-1	1.37878201E+0
6.57933648E+2	2.67915200E-1	1.37893741E+0
6.56305972E+2	2.67942400E-1	1.37905081E+0
6.54493450E+2	2.67938500E-1	1.37916248E+0
6.54070534E+2	2.67806300E-1	1.37923935E+0
6.51106431E+2	2.67992900E-1	1.37946791E+0
6.48246030E+2	2.67744200E-1	1.37991314E+0
6.45843443E+2	2.67794700E-1	1.38051757E+0
6.43914745E+2	2.67981200E-1	1.38137243E+0
6.41076513E+2	2.67856900E-1	1.38347291E+0
6.38755995E+2	2.67934600E-1	1.38930963E+0
6.36219852E+2	2.67938500E-1	1.40428863E+0
6.35109428E+2	2.67763600E-1	1.43947251E+0
6.33203381E+2	2.67833500E-1	1.47529764E+0
6.29875757E+2	2.67946200E-1	1.51922142E+0
6.27446559E+2	2.67926800E-1	1.53486456E+0
6.24965571E+2	2.67957900E-1	1.53486970E+0
6.22640640E+2	2.67779100E-1	1.53485356E+0
6.20512238E+2	2.67899600E-1	1.53486134E+0
6.18959130E+2	2.67802500E-1	1.53482592E+0
6.17752029E+2	2.67771300E-1	1.53482140E+0
6.14826787E+2	2.67786900E-1	1.53486174E+0
6.13588300E+2	2.67911300E-1	1.53490176E+0
6.11776319E+2	2.67751900E-1	1.53490968E+0
6.11352529E+2	2.67779100E-1	1.53480794E+0
6.10362334E+2	2.67779100E-1	1.53480964E+0
6.07323303E+2	2.67779100E-1	1.53478478E+0
6.05025411E+2	2.67961800E-1	1.53476304E+0
6.03028044E+2	2.67759700E-1	1.53472436E+0
6.01180130E+2	2.67876300E-1	1.53471390E+0
5.98489041E+2	2.67934600E-1	1.53475182E+0
5.96247808E+2	2.67759700E-1	1.53472020E+0
5.94514558E+2	2.67922900E-1	1.53472347E+0
5.93527649E+2	2.67946200E-1	1.53465420E+0
5.90481818E+2	2.67763600E-1	1.53466676E+0
5.87905192E+2	2.67946200E-1	1.53465496E+0
5.86079521E+2	2.67922900E-1	1.53466587E+0
5.84486923E+2	2.67736400E-1	1.53464261E+0
5.82680480E+2	2.67779100E-1	1.53461592E+0
5.80001546E+2	2.67891900E-1	1.53463939E+0
5.78881802E+2	2.67786900E-1	1.53463555E+0
5.77980494E+2	2.67744200E-1	1.53465594E+0
5.75832549E+2	2.67771300E-1	1.53466609E+0
5.74469421E+2	2.67821900E-1	1.53470781E+0
5.72790861E+2	2.67973400E-1	1.53468546E+0
5.70598067E+2	2.67763600E-1	1.53467140E+0
5.69018184E+2	2.67767500E-1	1.53468522E+0
5.67428337E+2	2.67969600E-1	1.53474747E+0
5.65908551E+2	2.67911300E-1	1.53475293E+0
5.64251155E+2	2.67942400E-1	1.53473768E+0
5.62297105E+2	2.67786900E-1	1.53473455E+0
5.60190541E+2	2.67907400E-1	1.53476384E+0
5.58554309E+2	2.67779100E-1	1.53478338E+0
5.57015479E+2	2.67794700E-1	1.53483226E+0
5.56707531E+2	2.67775200E-1	1.53478097E+0
5.54598130E+2	2.67954000E-1	1.53477229E+0
5.53226356E+2	2.67957900E-1	1.53482129E+0
5.51509746E+2	2.67825700E-1	1.53488086E+0
5.50278328E+2	2.67973400E-1	1.53487366E+0
5.47291710E+2	2.67825700E-1	1.53488493E+0
5.43872224E+2	2.67786900E-1	1.53486829E+0
5.42782074E+2	2.67954000E-1	1.53488591E+0
5.42069619E+2	2.67829700E-1	1.53493394E+0
5.39872276E+2	2.67957900E-1	1.53490330E+0
5.37371120E+2	2.67786900E-1	1.53490831E+0
5.35537434E+2	2.67821900E-1	1.53492571E+0
5.34081184E+2	2.67856900E-1	1.53494883E+0
5.33249176E+2	2.67973400E-1	1.53497695E+0
5.32954308E+2	2.67950200E-1	1.53497633E+0
5.31039022E+2	2.67860700E-1	1.53500075E+0
5.29377889E+2	2.67794700E-1	1.53502431E+0
5.27963742E+2	2.67853000E-1	1.53510136E+0
5.27695412E+2	2.67946200E-1	1.53504220E+0
5.25522520E+2	2.67942400E-1	1.53503460E+0
5.23181803E+2	2.68035700E-1	1.53504336E+0
5.21700138E+2	2.67985100E-1	1.53504600E+0
5.20322360E+2	2.67954000E-1	1.53504394E+0
5.18243894E+2	2.67887900E-1	1.53505056E+0
5.16099549E+2	2.67829700E-1	1.53508129E+0
5.14991151E+2	2.67973400E-1	1.53506367E+0
5.12690284E+2	2.67992900E-1	1.53504730E+0
5.11383351E+2	2.67961800E-1	1.53506062E+0
5.10663647E+2	2.67899600E-1	1.53505683E+0
5.09609814E+2	2.68020100E-1	1.53502718E+0
5.07688005E+2	2.67759700E-1	1.53499369E+0
5.06600186E+2	2.67821900E-1	1.53496475E+0
5.06176819E+2	2.67821900E-1	1.53500608E+0
5.05384888E+2	2.67798500E-1	1.53499812E+0
5.03965201E+2	2.67849100E-1	1.53497589E+0
5.02498234E+2	2.67790800E-1	1.53494561E+0
5.00721106E+2	2.67942400E-1	1.53494341E+0
4.99389620E+2	2.67860700E-1	1.53495987E+0
4.97294672E+2	2.67818000E-1	1.53499037E+0
4.96730994E+2	2.67899600E-1	1.53495665E+0
4.95360884E+2	2.68024000E-1	1.53496922E+0
4.94311474E+2	2.67961800E-1	1.53499261E+0
4.93248195E+2	2.67868500E-1	1.53498943E+0
4.91893485E+2	2.67989000E-1	1.53500048E+0
4.90462856E+2	2.67985100E-1	1.53497937E+0
4.89387644E+2	2.67965700E-1	1.53499104E+0
4.87919775E+2	2.67849100E-1	1.53498974E+0
4.86913863E+2	2.67868500E-1	1.53498872E+0
4.85716261E+2	2.67992900E-1	1.53499618E+0
4.84623983E+2	2.67821900E-1	1.53500075E+0
4.82286822E+2	2.67938500E-1	1.53501859E+0
4.81066185E+2	2.68004600E-1	1.53500088E+0
4.80348237E+2	2.67876300E-1	1.53505535E+0
4.80500481E+2	2.67806300E-1	1.53501792E+0
4.79642986E+2	2.68000700E-1	1.53497083E+0
4.79034188E+2	2.67872400E-1	1.53497861E+0
4.78163995E+2	2.67849100E-1	1.53499878E+0
4.78175793E+2	2.67864700E-1	1.53495594E+0
4.78739945E+2	2.67814100E-1	1.53493125E+0
4.78933145E+2	2.68016200E-1	1.53494186E+0
4.79024285E+2	2.67825700E-1	1.53495848E+0
4.79624347E+2	2.67961800E-1	1.53496809E+0
4.79316031E+2	2.67853000E-1	1.53497981E+0
4.79194766E+2	2.67841300E-1	1.53496357E+0
4.79148296E+2	2.67942400E-1	1.53495204E+0
4.78865016E+2	2.67880200E-1	1.53500879E+0
4.79117154E+2	2.67977400E-1	1.53504264E+0
4.78364802E+2	2.67829700E-1	1.53502099E+0
4.78052568E+2	2.68008400E-1	1.53498240E+0
4.78266818E+2	2.67790800E-1	1.53500369E+0
4.78744986E+2	2.67880200E-1	1.53498571E+0
4.77902710E+2	2.67845200E-1	1.53497739E+0
4.77563684E+2	2.67930700E-1	1.53493625E+0
4.78548823E+2	2.67841300E-1	1.53495789E+0
4.77276781E+2	2.67837400E-1	1.53498325E+0
4.77429475E+2	2.67755800E-1	1.53492516E+0
4.77341173E+2	2.67856900E-1	1.53490191E+0
4.77383996E+2	2.67985100E-1	1.53487266E+0
4.77466850E+2	2.67825700E-1	1.53489761E+0
4.76979902E+2	2.67810200E-1	1.53487552E+0
4.77212354E+2	2.67950200E-1	1.53490177E+0
4.77677008E+2	2.67942400E-1	1.53488008E+0
4.77647019E+2	2.67973400E-1	1.53484359E+0
4.77476042E+2	2.67884100E-1	1.53483442E+0
4.77673316E+2	2.67961800E-1	1.53486148E+0
4.77575422E+2	2.67806300E-1	1.53484547E+0
4.76928844E+2	2.67864700E-1	1.53483407E+0
4.77051099E+2	2.67856900E-1	1.53480782E+0
4.77522471E+2	2.67961800E-1	1.53479163E+0
4.78023379E+2	2.67922900E-1	1.53482499E+0
4.78185215E+2	2.67977400E-1	1.53477495E+0
4.77627390E+2	2.67985100E-1	1.53480173E+0
4.77787965E+2	2.67899600E-1	1.53478183E+0
4.76743777E+2	2.67992900E-1	1.53481050E+0
4.76906244E+2	2.67814100E-1	1.53477106E+0
4.77058594E+2	2.67810200E-1	1.53478809E+0
4.77108114E+2	2.67856900E-1	1.53482758E+0
4.77398554E+2	2.67825700E-1	1.53478309E+0
4.77374914E+2	2.67837400E-1	1.53481556E+0
4.77652655E+2	2.67860700E-1	1.53484378E+0
4.77624782E+2	2.67934600E-1	1.53483045E+0
4.77895859E+2	2.67814100E-1	1.53479441E+0
4.77791661E+2	2.67821900E-1	1.53485474E+0
4.77373252E+2	2.67798500E-1	1.53487732E+0
4.77302916E+2	2.67969600E-1	1.53486010E+0
4.77174852E+2	2.67806300E-1	1.53489655E+0
4.77586646E+2	2.67930700E-1	1.53484959E+0
4.77343802E+2	2.67946200E-1	1.53486645E+0
4.77808011E+2	2.67763600E-1	1.53485509E+0
4.77645455E+2	2.67833500E-1	1.53484478E+0
4.77105692E+2	2.67841300E-1	1.53487311E+0
4.77463634E+2	2.67845200E-1	1.53485947E+0
4.77069491E+2	2.68004600E-1	1.53485415E+0
4.77494974E+2	2.67821900E-1	1.53489761E+0
4.77884568E+2	2.67981200E-1	1.53486456E+0
4.77701479E+2	2.68004600E-1	1.53483939E+0
4.78505434E+2	2.67841300E-1	1.53481502E+0
4.78297889E+2	2.67775200E-1	1.53484578E+0
4.78204412E+2	2.67996800E-1	1.53486403E+0
4.78483100E+2	2.67946200E-1	1.53482101E+0
4.78156997E+2	2.67872400E-1	1.53478304E+0
4.77878354E+2	2.67884100E-1	1.53479865E+0
4.77998898E+2	2.67794700E-1	1.53477763E+0
4.77977554E+2	2.67938500E-1	1.53476976E+0
4.77655054E+2	2.67903500E-1	1.53473971E+0
4.77237631E+2	2.67973400E-1	1.53472567E+0
4.77118753E+2	2.67849100E-1	1.53474789E+0
4.77116238E+2	2.67856900E-1	1.53474244E+0
4.77305723E+2	2.67977400E-1	1.53474190E+0
4.77080892E+2	2.67783000E-1	1.53476533E+0
4.76251855E+2	2.67895700E-1	1.53476922E+0
4.75925527E+2	2.67794700E-1	1.53479883E+0
4.75940207E+2	2.67922900E-1	1.53477477E+0
4.76210113E+2	2.67825700E-1	1.53476497E+0
4.76364834E+2	2.67934600E-1	1.53474695E+0
4.76758211E+2	2.67849100E-1	1.53475263E+0
4.77066662E+2	2.68008400E-1	1.53477691E+0
4.77083385E+2	2.67775200E-1	1.53475348E+0
4.77485331E+2	2.67794700E-1	1.53477866E+0
4.77503028E+2	2.67872400E-1	1.53482016E+0
4.78078999E+2	2.67810200E-1	1.53479784E+0
4.78128892E+2	2.67853000E-1	1.53479292E+0
4.78109799E+2	2.67849100E-1	1.53478085E+0
4.78304191E+2	2.67853000E-1	1.53480978E+0
4.78554374E+2	2.67989000E-1	1.53481157E+0
4.78612057E+2	2.67938500E-1	1.53479995E+0
4.78738950E+2	2.67806300E-1	1.53480227E+0
4.78731565E+2	2.67825700E-1	1.53479024E+0
4.77773552E+2	2.67868500E-1	1.53479324E+0
4.77702045E+2	2.67989000E-1	1.53484627E+0
4.77460687E+2	2.67957900E-1	1.53485441E+0
4.77398547E+2	2.67806300E-1	1.53485039E+0
4.77289801E+2	2.67950200E-1	1.53487418E+0
4.77303715E+2	2.68027900E-1	1.53487762E+0
4.77251931E+2	2.67829700E-1	1.53489368E+0
4.76858870E+2	2.67876300E-1	1.53488616E+0
4.76951630E+2	2.67790800E-1	1.53487266E+0
4.77234910E+2	2.67872400E-1	1.53486671E+0
4.77373351E+2	2.67884100E-1	1.53484391E+0
4.77275125E+2	2.67880200E-1	1.53486471E+0
4.77280529E+2	2.67806300E-1	1.53491806E+0
4.77431377E+2	2.67767500E-1	1.53490268E+0
4.77782156E+2	2.67981200E-1	1.53490402E+0
4.77803725E+2	2.67849100E-1	1.53495370E+0
4.77922198E+2	2.67829700E-1	1.53498223E+0
4.78151352E+2	2.67884100E-1	1.53497204E+0
4.78119832E+2	2.67996800E-1	1.53499399E+0
4.77503784E+2	2.67907400E-1	1.53499402E+0
4.77023906E+2	2.68000700E-1	1.53500239E+0
4.76805534E+2	2.67989000E-1	1.53501768E+0
4.77260558E+2	2.67845200E-1	1.53498897E+0
4.77339405E+2	2.68004600E-1	1.53501165E+0
4.77950948E+2	2.67814100E-1	1.53505619E+0
4.77891600E+2	2.67903500E-1	1.53508347E+0
4.77381552E+2	2.67919100E-1	1.53508061E+0
4.76933600E+2	2.67996800E-1	1.53500758E+0
4.76440663E+2	2.67833500E-1	1.53508217E+0
4.76759606E+2	2.68000700E-1	1.53508888E+0
4.76844217E+2	2.67895700E-1	1.53509268E+0
4.77352508E+2	2.67926800E-1	1.53508454E+0
4.77582444E+2	2.67938500E-1	1.53511222E+0
4.77520119E+2	2.67868500E-1	1.53510404E+0
4.77506693E+2	2.67833500E-1	1.53510158E+0
4.78044658E+2	2.67860700E-1	1.53511906E+0
4.78096217E+2	2.67880200E-1	1.53513096E+0
4.77975268E+2	2.67969600E-1	1.53510629E+0
4.77877194E+2	2.67821900E-1	1.53513061E+0
4.77485979E+2	2.67969600E-1	1.53508840E+0
4.77223098E+2	2.67868500E-1	1.53512462E+0
4.77551902E+2	2.67950200E-1	1.53515073E+0
4.77645473E+2	2.68000700E-1	1.53510333E+0
4.78092741E+2	2.67911300E-1	1.53510754E+0
4.78175112E+2	2.68024000E-1	1.53509148E+0
4.78257516E+2	2.67891900E-1	1.53504247E+0
4.77850496E+2	2.67903500E-1	1.53509141E+0
4.77430372E+2	2.67868500E-1	1.53507019E+0
4.77412540E+2	2.67887900E-1	1.53509465E+0
4.77350625E+2	2.68004600E-1	1.53511763E+0
4.77317798E+2	2.67880200E-1	1.53514290E+0
4.77455948E+2	2.67950200E-1	1.53513677E+0
4.77712661E+2	2.67829700E-1	1.53513333E+0
4.78008729E+2	2.67954000E-1	1.53516624E+0
4.78225784E+2	2.67996800E-1	1.53514415E+0
4.78109871E+2	2.68047300E-1	1.53518726E+0
4.77996397E+2	2.68000700E-1	1.53518994E+0
4.77835822E+2	2.68070700E-1	1.53518306E+0
4.77595726E+2	2.68086200E-1	1.53515336E+0
4.78268464E+2	2.67996800E-1	1.53515958E+0
4.78273733E+2	2.67911300E-1	1.53513548E+0
4.78018732E+2	2.67922900E-1	1.53513597E+0
4.77683443E+2	2.67876300E-1	1.53517121E+0
4.77371930E+2	2.67860700E-1	1.53517796E+0
4.77252197E+2	2.67887900E-1	1.53516226E+0
4.77166416E+2	2.68027900E-1	1.53515542E+0
4.77240309E+2	2.67977400E-1	1.53518807E+0
4.77432224E+2	2.67926800E-1	1.53521280E+0
4.77944478E+2	2.68020100E-1	1.53516146E+0
4.77665926E+2	2.68000700E-1	1.53514362E+0
4.77672005E+2	2.67922900E-1	1.53513400E+0
4.76884307E+2	2.68008400E-1	1.53517359E+0
4.76511058E+2	2.68031800E-1	1.53517377E+0
4.77329191E+2	2.67930700E-1	1.53520163E+0
4.77384902E+2	2.67946200E-1	1.53519147E+0
4.76858554E+2	2.67934600E-1	1.53520122E+0
4.76417131E+2	2.68004600E-1	1.53519510E+0
4.76213508E+2	2.67860700E-1	1.53518222E+0
4.76421274E+2	2.68051200E-1	1.53515328E+0
4.76318472E+2	2.68039600E-1	1.53519125E+0
4.76054067E+2	2.68020100E-1	1.53517797E+0
4.76175094E+2	2.68082300E-1	1.53516509E+0
4.75689497E+2	2.67915200E-1	1.53518427E+0
4.76046040E+2	2.67977400E-1	1.53520444E+0
4.76731792E+2	2.67915200E-1	1.53522403E+0
4.76391505E+2	2.67891900E-1	1.53523534E+0
4.76279832E+2	2.67887900E-1	1.53520677E+0
4.77233927E+2	2.67938500E-1	1.53519608E+0
4.77350490E+2	2.67911300E-1	1.53517122E+0
4.77592567E+2	2.68078400E-1	1.53519930E+0
4.77351165E+2	2.67868500E-1	1.53522296E+0
4.77357244E+2	2.67911300E-1	1.53516062E+0
4.77416548E+2	2.68024000E-1	1.53517327E+0
4.77029655E+2	2.68027900E-1	1.53512574E+0
4.77003268E+2	2.67868500E-1	1.53513240E+0
4.77328431E+2	2.67872400E-1	1.53513052E+0
4.76683885E+2	2.67946200E-1	1.53514684E+0
4.76912499E+2	2.67973400E-1	1.53513625E+0
4.77250850E+2	2.67930700E-1	1.53512534E+0
4.77407147E+2	2.67985100E-1	1.53513594E+0
4.77786159E+2	2.68027900E-1	1.53514913E+0
4.77180919E+2	2.68008400E-1	1.53509408E+0
4.77130173E+2	2.67926800E-1	1.53512803E+0
4.77060081E+2	2.67895700E-1	1.53511819E+0
4.78155465E+2	2.67868500E-1	1.53512669E+0
4.77628847E+2	2.67992900E-1	1.53511596E+0
4.77038107E+2	2.67911300E-1	1.53514396E+0
4.77962515E+2	2.67884100E-1	1.53511735E+0
4.78628139E+2	2.67934600E-1	1.53513371E+0
4.78077475E+2	2.68020100E-1	1.53514798E+0
4.78029944E+2	2.68012400E-1	1.53512133E+0
4.78204769E+2	2.67961800E-1	1.53516618E+0
4.78564283E+2	2.67899600E-1	1.53516457E+0
4.78524387E+2	2.67938500E-1	1.53516654E+0
4.78570272E+2	2.67922900E-1	1.53516752E+0
4.77948777E+2	2.68027900E-1	1.53514382E+0
4.77804863E+2	2.68012400E-1	1.53513640E+0
4.76850871E+2	2.68070700E-1	1.53518921E+0
4.77091463E+2	2.67880200E-1	1.53520146E+0
4.76482035E+2	2.67864700E-1	1.53516524E+0
4.76608523E+2	2.68055100E-1	1.53513756E+0
4.77398698E+2	2.67957900E-1	1.53515053E+0
4.77537343E+2	2.67853000E-1	1.53513402E+0
4.77725791E+2	2.67876300E-1	1.53511233E+0
4.77096506E+2	2.67856900E-1	1.53504807E+0
4.77444784E+2	2.67880200E-1	1.53506967E+0
4.77360984E+2	2.67985100E-1	1.53506287E+0
4.76535866E+2	2.67961800E-1	1.53504498E+0
4.76759932E+2	2.67915200E-1	1.53503894E+0
4.77085900E+2	2.67992900E-1	1.53505795E+0
4.77372737E+2	2.67973400E-1	1.53509806E+0
4.77573297E+2	2.67911300E-1	1.53514529E+0
4.77106793E+2	2.68016200E-1	1.53510705E+0
4.77878455E+2	2.67919100E-1	1.53510795E+0
4.78044118E+2	2.68074500E-1	1.53514824E+0
4.78158358E+2	2.67806300E-1	1.53514860E+0
4.77890703E+2	2.67864700E-1	1.53511868E+0
4.78254495E+2	2.67915200E-1	1.53515633E+0
4.78153404E+2	2.67872400E-1	1.53516121E+0
4.77965632E+2	2.68024000E-1	1.53510200E+0
4.78180041E+2	2.67992900E-1	1.53516094E+0
4.78049164E+2	2.67868500E-1	1.53520084E+0
4.78538273E+2	2.67915200E-1	1.53516743E+0
4.79591060E+2	2.68008400E-1	1.53520245E+0
4.79685081E+2	2.67930700E-1	1.53519740E+0
4.80540999E+2	2.67938500E-1	1.53518939E+0
4.82960877E+2	2.67985100E-1	1.53518304E+0
4.83627267E+2	2.67981200E-1	1.53517137E+0
4.84333651E+2	2.68062900E-1	1.53517682E+0
4.85047412E+2	2.67821900E-1	1.53517489E+0
4.86517667E+2	2.67907400E-1	1.53511649E+0
4.88278406E+2	2.68051200E-1	1.53516707E+0
4.89136576E+2	2.67946200E-1	1.53523665E+0
4.91085132E+2	2.68039600E-1	1.53522833E+0
4.92073077E+2	2.68024000E-1	1.53525516E+0
4.92959525E+2	2.67961800E-1	1.53526997E+0
4.94376420E+2	2.68027900E-1	1.53522252E+0
4.95644312E+2	2.68027900E-1	1.53522690E+0
4.96671027E+2	2.67872400E-1	1.53521697E+0
4.98954152E+2	2.68008400E-1	1.53520848E+0
5.00165443E+2	2.68012400E-1	1.53524626E+0
5.01938925E+2	2.67884100E-1	1.53524720E+0
5.03235017E+2	2.68031800E-1	1.53522932E+0
5.04354623E+2	2.67833500E-1	1.53524099E+0
5.04932485E+2	2.68035700E-1	1.53522668E+0
5.05786152E+2	2.67915200E-1	1.53521214E+0
5.06560883E+2	2.67957900E-1	1.53524572E+0
5.07946573E+2	2.67954000E-1	1.53522698E+0
5.09784223E+2	2.67880200E-1	1.53524062E+0
5.11209854E+2	2.67911300E-1	1.53520538E+0
5.12875198E+2	2.68047300E-1	1.53522439E+0
5.14621258E+2	2.67996800E-1	1.53528592E+0
5.15848039E+2	2.67876300E-1	1.53523601E+0
5.17696902E+2	2.68051200E-1	1.53528717E+0
5.19213177E+2	2.67860700E-1	1.53528056E+0
5.19955216E+2	2.67887900E-1	1.53528896E+0
5.21851495E+2	2.67934600E-1	1.53534240E+0
5.23669369E+2	2.67969600E-1	1.53530614E+0
5.25450490E+2	2.67930700E-1	1.53529648E+0
5.26865989E+2	2.67891900E-1	1.53527143E+0
5.28054404E+2	2.67825700E-1	1.53528243E+0
5.29967523E+2	2.67903500E-1	1.53528713E+0
5.30959835E+2	2.68039600E-1	1.53527416E+0
5.32803518E+2	2.67876300E-1	1.53528167E+0
5.34116936E+2	2.67907400E-1	1.53527045E+0
5.35386240E+2	2.67934600E-1	1.53528663E+0
5.36278902E+2	2.68024000E-1	1.53527536E+0
5.38317247E+2	2.68059000E-1	1.53520689E+0
5.41891768E+2	2.67996800E-1	1.53526011E+0
5.42084854E+2	2.67919100E-1	1.53524321E+0
5.42610257E+2	2.68055100E-1	1.53527111E+0
5.43822853E+2	2.67853000E-1	1.53522402E+0
5.46266101E+2	2.67934600E-1	1.53520819E+0
5.48298817E+2	2.68020100E-1	1.53524401E+0
5.50460857E+2	2.67946200E-1	1.53523310E+0
5.51766393E+2	2.67915200E-1	1.53521928E+0
5.53014112E+2	2.67884100E-1	1.53522317E+0
5.54701092E+2	2.67961800E-1	1.53525607E+0
5.55924721E+2	2.67915200E-1	1.53524812E+0
5.57907814E+2	2.67977400E-1	1.53518081E+0
5.59845610E+2	2.67992900E-1	1.53525075E+0
5.62235364E+2	2.67911300E-1	1.53521069E+0
5.64913262E+2	2.67802500E-1	1.53517464E+0
5.66276887E+2	2.67891900E-1	1.53518831E+0
5.67837200E+2	2.67911300E-1	1.53514208E+0
5.69554260E+2	2.67829700E-1	1.53514333E+0
5.71243493E+2	2.67891900E-1	1.53511189E+0
5.73292940E+2	2.68035700E-1	1.53511650E+0
5.74617565E+2	2.67934600E-1	1.53513617E+0
5.76069267E+2	2.67969600E-1	1.53507795E+0
5.77390474E+2	2.67833500E-1	1.53510836E+0
5.79571337E+2	2.67957900E-1	1.53508823E+0
5.80065174E+2	2.68016200E-1	1.53506046E+0
5.82072314E+2	2.68012400E-1	1.53507799E+0
5.84342989E+2	2.67868500E-1	1.53508653E+0
5.86635775E+2	2.67872400E-1	1.53505246E+0
5.88480855E+2	2.67977400E-1	1.53499477E+0
5.90479620E+2	2.67849100E-1	1.53503381E+0
5.91967526E+2	2.67872400E-1	1.53498135E+0
5.94198553E+2	2.67919100E-1	1.53493789E+0
5.96560390E+2	2.67973400E-1	1.53492742E+0
5.97955671E+2	2.67853000E-1	1.53492478E+0
6.00450589E+2	2.67833500E-1	1.53492908E+0
6.01605638E+2	2.67860700E-1	1.53489124E+0
6.02337591E+2	2.67833500E-1	1.53492899E+0
6.04917775E+2	2.67853000E-1	1.53493100E+0
6.07990131E+2	2.67860700E-1	1.53493816E+0
6.08926967E+2	2.67779100E-1	1.53495081E+0
6.11206986E+2	2.67837400E-1	1.53490055E+0
6.12464795E+2	2.67989000E-1	1.53488114E+0
6.16644392E+2	2.67868500E-1	1.53488400E+0
6.17131339E+2	2.67969600E-1	1.53492358E+0
6.21444118E+2	2.67985100E-1	1.53491973E+0
6.21878472E+2	2.67911300E-1	1.53490967E+0
6.22951702E+2	2.67845200E-1	1.53493418E+0
6.25264546E+2	2.67810200E-1	1.53494451E+0
6.26889651E+2	2.67775200E-1	1.53491566E+0
6.27580713E+2	2.67989000E-1	1.53495094E+0
6.28967933E+2	2.67954000E-1	1.53494728E+0
6.31327742E+2	2.67954000E-1	1.53490828E+0
6.36581094E+2	2.68000700E-1	1.53488306E+0
6.36888375E+2	2.67926800E-1	1.53483647E+0
6.38096153E+2	2.67926800E-1	1.53482196E+0
6.40335824E+2	2.67872400E-1	1.53486472E+0
6.42140219E+2	2.67833500E-1	1.50296499E+0
6.43521129E+2	2.67895700E-1	1.47012181E+0
6.45495262E+2	2.67961800E-1	1.46623903E+0
6.47615244E+2	2.67864700E-1	1.46267219E+0
6.49917461E+2	2.67837400E-1	1.45778971E+0
6.51607954E+2	2.67907400E-1	1.45239116E+0
6.53812277E+2	2.67814100E-1	1.44849050E+0
6.57046196E+2	2.67845200E-1	1.44380827E+0
6.59603054E+2	2.67829700E-1	1.43981481E+0
6.60572897E+2	2.67957900E-1	1.43647264E+0
6.62326431E+2	2.67837400E-1	1.43463297E+0
6.64142825E+2	2.67880200E-1	1.43276096E+0
6.66114211E+2	2.67860700E-1	1.43104534E+0
6.68494104E+2	2.67969600E-1	1.42888843E+0
6.71205187E+2	2.67911300E-1	1.42700613E+0
6.73883756E+2	2.67969600E-1	1.42570833E+0
6.76333309E+2	2.67977400E-1	1.42374089E+0
6.78345852E+2	2.67926800E-1	1.42101165E+0
6.80317914E+2	2.67891900E-1	1.41890947E+0
6.83618163E+2	2.67790800E-1	1.41667180E+0
6.87994028E+2	2.67961800E-1	1.41420131E+0
6.88536677E+2	2.67849100E-1	1.41136917E+0
6.90215490E+2	2.67837400E-1	1.40935777E+0
6.91230621E+2	2.67837400E-1	1.40807942E+0
6.94394024E+2	2.68000700E-1	1.40699497E+0
6.96447318E+2	2.67802500E-1	1.40542075E+0
6.99571320E+2	2.68000700E-1	1.40405792E+0
7.01902581E+2	2.67802500E-1	1.40229897E+0
7.03357299E+2	2.67821900E-1	1.40083834E+0
7.05650150E+2	2.67845200E-1	1.40021056E+0
7.08727945E+2	2.67849100E-1	1.39969114E+0
7.10407720E+2	2.67853000E-1	1.39934823E+0
7.13547436E+2	2.67825700E-1	1.39908188E+0
7.15513282E+2	2.67942400E-1	1.39884899E+0
7.17888715E+2	2.67969600E-1	1.39758700E+0
7.20238212E+2	2.67981200E-1	1.39666645E+0
7.22727164E+2	2.67872400E-1	1.39594570E+0
7.24473166E+2	2.67814100E-1	1.39525121E+0
7.26274994E+2	2.67973400E-1	1.39460617E+0
7.29305966E+2	2.67821900E-1	1.39393453E+0
7.31228765E+2	2.67798500E-1	1.39317429E+0
7.33712044E+2	2.67767500E-1	1.39131022E+0
7.36313120E+2	2.67771300E-1	1.39036836E+0
7.39058921E+2	2.67876300E-1	1.38974068E+0
7.41824309E+2	2.67798500E-1	1.38882907E+0
7.44402131E+2	2.67755800E-1	1.38792149E+0
7.45904356E+2	2.68004600E-1	1.38738870E+0
7.47658835E+2	2.67775200E-1	1.38708876E+0
7.50480284E+2	2.67856900E-1	1.38668969E+0
7.53928813E+2	2.67845200E-1	1.38595669E+0
7.56220717E+2	2.67829700E-1	1.38561923E+0
7.58157745E+2	2.67973400E-1	1.38547273E+0
7.60917369E+2	2.67837400E-1	1.38544572E+0
7.63183632E+2	2.67833500E-1	1.38533500E+0
7.65890437E+2	2.67845200E-1	1.38529609E+0
7.68731294E+2	2.67825700E-1	1.38528312E+0
7.70758605E+2	2.67825700E-1	1.38528317E+0
7.73567041E+2	2.67818000E-1	1.38518787E+0
7.75861377E+2	2.67798500E-1	1.38509932E+0
7.77928565E+2	2.67794700E-1	1.38505013E+0
7.79718840E+2	2.67969600E-1	1.38501931E+0
7.82981172E+2	2.67775200E-1	1.38496762E+0
7.85657581E+2	2.67806300E-1	1.38486468E+0
7.88085609E+2	2.67961800E-1	1.38478861E+0
7.91240366E+2	2.67907400E-1	1.38444655E+0
7.93660693E+2	2.67950200E-1	1.38440358E+0
7.95529547E+2	2.67802500E-1	1.38437996E+0
7.97342740E+2	2.67806300E-1	1.38437397E+0
8.00633271E+2	2.67825700E-1	1.38434043E+0
8.02853264E+2	2.67825700E-1	1.38429866E+0
8.05261119E+2	2.67759700E-1	1.38430331E+0
8.08008586E+2	2.67868500E-1	1.38423597E+0
8.10453006E+2	2.67790800E-1	1.38412497E+0
8.13475602E+2	2.67864700E-1	1.38408271E+0
8.16229132E+2	2.67981200E-1	1.38404215E+0
8.17906678E+2	2.67814100E-1	1.38405432E+0
8.20723984E+2	2.67973400E-1	1.38393465E+0
8.23742167E+2	2.67899600E-1	1.38383600E+0
8.26116159E+2	2.67775200E-1	1.38383072E+0
8.28322687E+2	2.67802500E-1	1.38380326E+0
8.34051636E+2	2.67825700E-1	1.38387732E+0
8.34270749E+2	2.67837400E-1	1.38383470E+0
8.36081577E+2	2.67853000E-1	1.38376529E+0
8.38054493E+2	2.67938500E-1	1.38358610E+0
8.43243765E+2	2.67872400E-1	1.38363771E+0
8.44093649E+2	2.67833500E-1	1.38361884E+0
8.49046471E+2	2.67926800E-1	1.38365417E+0
8.49547153E+2	2.67961800E-1	1.38355744E+0
8.51321804E+2	2.67930700E-1	1.38354670E+0
8.54116555E+2	2.67919100E-1	1.38358275E+0
8.56592813E+2	2.67938500E-1	1.38358087E+0
8.59106397E+2	2.67996800E-1	1.38352249E+0
8.62284840E+2	2.67864700E-1	1.38350883E+0
8.66821863E+2	2.67957900E-1	1.38353812E+0
8.67023729E+2	2.67969600E-1	1.38353593E+0
8.72074628E+2	2.67829700E-1	1.38354590E+0
8.72509071E+2	2.67973400E-1	1.38352631E+0
8.74260548E+2	2.67837400E-1	1.38348396E+0
8.77169129E+2	2.67911300E-1	1.38352877E+0
8.80038129E+2	2.68000700E-1	1.38350185E+0
8.82418967E+2	2.67919100E-1	1.38332677E+0
8.84439974E+2	2.67946200E-1	1.38330679E+0
8.87327437E+2	2.67981200E-1	1.38328505E+0
8.90073552E+2	2.67930700E-1	1.38330987E+0
8.94376791E+2	2.67853000E-1	1.38328317E+0
8.94856489E+2	2.67919100E-1	1.38329198E+0
8.97400153E+2	2.67884100E-1	1.38327660E+0
8.99999563E+2	2.67876300E-1	1.38327114E+0
9.02641932E+2	2.67895700E-1	1.38330486E+0
9.05309471E+2	2.67911300E-1	1.38325840E+0
9.09959429E+2	2.67802500E-1	1.38326402E+0
9.10443045E+2	2.67833500E-1	1.38328729E+0
9.13132649E+2	2.67829700E-1	1.38327141E+0
9.15667577E+2	2.67911300E-1	1.38325527E+0
9.18128432E+2	2.67954000E-1	1.38320433E+0
9.20611036E+2	2.67930700E-1	1.38324588E+0
9.23400786E+2	2.67833500E-1	1.38327450E+0
9.25608260E+2	2.67922900E-1	1.38324418E+0
9.27901561E+2	2.67806300E-1	1.38323264E+0
9.30480339E+2	2.67856900E-1	1.38325898E+0
9.33405255E+2	2.67985100E-1	1.38323595E+0
9.35914202E+2	2.67767500E-1	1.38323595E+0
9.38426887E+2	2.67922900E-1	1.38324699E+0
9.40498509E+2	2.67887900E-1	1.38322929E+0
9.42725032E+2	2.67779100E-1	1.38325424E+0
9.45033418E+2	2.67961800E-1	1.38322745E+0
9.47427751E+2	2.67992900E-1	1.38322593E+0
9.49648083E+2	2.67821900E-1	1.38323277E+0
9.52353041E+2	2.67853000E-1	1.38320594E+0
9.55166159E+2	2.67996800E-1	1.38318537E+0
9.57444554E+2	2.67938500E-1	1.38320433E+0
9.59990469E+2	2.67837400E-1	1.38323228E+0
9.62325421E+2	2.67887900E-1	1.38319494E+0
9.64962880E+2	2.67950200E-1	1.38317383E+0
9.67114477E+2	2.67887900E-1	1.38323429E+0
9.69445974E+2	2.67860700E-1	1.38323247E+0
9.71500258E+2	2.67919100E-1	1.38319633E+0
9.73945262E+2	2.68012400E-1	1.38315586E+0
9.76157283E+2	2.67973400E-1	1.38317473E+0
9.78616066E+2	2.67841300E-1	1.38314289E+0
9.80744649E+2	2.67996800E-1	1.38314280E+0
9.82852194E+2	2.67845200E-1	1.38314946E+0
9.85398164E+2	2.67992900E-1	1.38317593E+0
9.87260083E+2	2.67841300E-1	1.38315018E+0
9.89571890E+2	2.67864700E-1	1.38313833E+0
9.91320650E+2	2.68012400E-1	1.38311914E+0
9.93704368E+2	2.68020100E-1	1.38312308E+0
9.95755770E+2	2.68004600E-1	1.38317701E+0
1.00036967E+3	2.68008400E-1	1.38311413E+0
1.00057227E+3	2.67981200E-1	1.38309267E+0
1.00284388E+3	2.67922900E-1	1.38305752E+0
1.00506122E+3	2.67845200E-1	1.38309499E+0
1.00704949E+3	2.67942400E-1	1.38307715E+0
1.00910652E+3	2.67973400E-1	1.38310148E+0
1.01085285E+3	2.68004600E-1	1.38311489E+0
1.01470296E+3	2.67950200E-1	1.38306539E+0
1.01487228E+3	2.67802500E-1	1.38309361E+0
1.01678492E+3	2.68020100E-1	1.38310528E+0
1.01883317E+3	2.67942400E-1	1.38311682E+0
1.02060747E+3	2.67833500E-1	1.38311726E+0
1.02242228E+3	2.67868500E-1	1.38308472E+0
1.02453407E+3	2.67775200E-1	1.38311668E+0
1.02643814E+3	2.68008400E-1	1.38309316E+0
1.02823233E+3	2.67946200E-1	1.38311503E+0
1.02999726E+3	2.67938500E-1	1.38311874E+0
1.03186584E+3	2.67868500E-1	1.38309513E+0
1.03362775E+3	2.68000700E-1	1.38309378E+0
1.03528564E+3	2.67946200E-1	1.38308475E+0
1.03700675E+3	2.68000700E-1	1.38311829E+0
1.03884733E+3	2.67965700E-1	1.38311462E+0
1.04042466E+3	2.67849100E-1	1.38311355E+0
1.04210253E+3	2.67868500E-1	1.38309159E+0
1.04384693E+3	2.67829700E-1	1.38303511E+0
1.04683877E+3	2.68000700E-1	1.38303046E+0
1.04711534E+3	2.67837400E-1	1.38302322E+0
1.04862229E+3	2.67922900E-1	1.38301803E+0
1.05016860E+3	2.67845200E-1	1.38302094E+0
1.05164565E+3	2.67849100E-1	1.38304880E+0
1.05316013E+3	2.67856900E-1	1.38302724E+0
1.05460344E+3	2.67887900E-1	1.38306485E+0
1.05587439E+3	2.67810200E-1	1.38303046E+0
1.05749117E+3	2.67790800E-1	1.38300537E+0
1.05887812E+3	2.68012400E-1	1.38298596E+0
1.06031469E+3	2.67767500E-1	1.38298471E+0
1.06291797E+3	2.67829700E-1	1.38298158E+0
1.06303338E+3	2.67891900E-1	1.38297107E+0
1.06412656E+3	2.67926800E-1	1.38297313E+0
1.06544997E+3	2.67845200E-1	1.38296074E+0
1.06665081E+3	2.67853000E-1	1.38295663E+0
1.06790592E+3	2.67837400E-1	1.38298297E+0
1.06898221E+3	2.67853000E-1	1.38298883E+0
1.07015140E+3	2.67872400E-1	1.38296374E+0
1.07126308E+3	2.67926800E-1	1.38294049E+0
1.07236826E+3	2.68020100E-1	1.38299951E+0
1.07338266E+3	2.67825700E-1	1.38297085E+0
1.07437096E+3	2.67759700E-1	1.38292175E+0
1.07532104E+3	2.67954000E-1	1.38291012E+0
1.07624779E+3	2.67930700E-1	1.38287658E+0
1.07714054E+3	2.67926800E-1	1.38287520E+0
1.07801920E+3	2.67977400E-1	1.38285825E+0
1.07885629E+3	2.67829700E-1	1.38285816E+0
1.07965863E+3	2.67938500E-1	1.38283589E+0
1.08054728E+3	2.67806300E-1	1.38282216E+0
1.08117188E+3	2.67880200E-1	1.38283589E+0
1.08195206E+3	2.67853000E-1	1.38283166E+0
1.08259909E+3	2.67911300E-1	1.38283334E+0
1.08329628E+3	2.67973400E-1	1.38281768E+0
1.08384492E+3	2.67954000E-1	1.38279260E+0
1.08443358E+3	2.67911300E-1	1.38278271E+0
1.08495550E+3	2.67946200E-1	1.38281361E+0
1.08547797E+3	2.67891900E-1	1.38284259E+0
1.08591115E+3	2.67856900E-1	1.38283508E+0
1.08654368E+3	2.67989000E-1	1.38280324E+0
1.08661222E+3	2.67849100E-1	1.38278920E+0
1.08687807E+3	2.67930700E-1	1.38281527E+0
1.08714194E+3	2.67977400E-1	1.38285489E+0
1.08735849E+3	2.67946200E-1	1.38282623E+0
1.08772051E+3	2.67849100E-1	1.38284532E+0
1.08776288E+3	2.67985100E-1	1.38284720E+0
1.08814684E+3	2.67934600E-1	1.38289295E+0
1.08831206E+3	2.67849100E-1	1.38288002E+0
1.08849722E+3	2.67837400E-1	1.38286070E+0
1.08852306E+3	2.67798500E-1	1.38283781E+0
1.08868247E+3	2.67915200E-1	1.38283902E+0
1.08885101E+3	2.67779100E-1	1.38286974E+0
1.08900663E+3	2.67930700E-1	1.38286169E+0
1.08916406E+3	2.67954000E-1	1.38285485E+0
1.08930230E+3	2.67922900E-1	1.38288740E+0
1.08942924E+3	2.67919100E-1	1.38289729E+0
1.08968320E+3	2.67957900E-1	1.38286795E+0
1.08980883E+3	2.67860700E-1	1.38287806E+0
1.08982684E+3	2.67965700E-1	1.38291043E+0
1.08995085E+3	2.67868500E-1	1.38292778E+0
1.09015492E+3	2.67938500E-1	1.38291191E+0
1.09026097E+3	2.67981200E-1	1.38292367E+0
1.09028929E+3	2.67961800E-1	1.38291115E+0
1.09039687E+3	2.67802500E-1	1.38294299E+0
1.09049427E+3	2.67950200E-1	1.38297033E+0
1.09066457E+3	2.67899600E-1	1.38295149E+0
1.09072275E+3	2.67833500E-1	1.38295412E+0
1.09075125E+3	2.67985100E-1	1.38298154E+0
1.09087931E+3	2.67919100E-1	1.38295725E+0
1.09095505E+3	2.67853000E-1	1.38296960E+0
1.09103836E+3	2.67992900E-1	1.38297590E+0
1.09119015E+3	2.67938500E-1	1.38294536E+0
1.09119709E+3	2.67876300E-1	1.38296987E+0
1.09125522E+3	2.67899600E-1	1.38299423E+0
1.09140021E+3	2.67930700E-1	1.38298950E+0
1.09148933E+3	2.67981200E-1	1.38294746E+0
1.09149941E+3	2.67926800E-1	1.38295359E+0
1.09155378E+3	2.67810200E-1	1.38295140E+0
1.09160336E+3	2.67802500E-1	1.38292197E+0
1.09168270E+3	2.67833500E-1	1.38293879E+0
1.09175763E+3	2.67845200E-1	1.38297264E+0
1.09180212E+3	2.67919100E-1	1.38290091E+0
1.09189646E+3	2.67806300E-1	1.38292550E+0
1.09190051E+3	2.68000700E-1	1.38291092E+0
1.09196625E+3	2.68020100E-1	1.38294129E+0
1.09202204E+3	2.67884100E-1	1.38292300E+0
1.09207117E+3	2.68012400E-1	1.38292564E+0
1.09216699E+3	2.67907400E-1	1.38294084E+0
1.09217807E+3	2.67942400E-1	1.38291482E+0
1.09227132E+3	2.67860700E-1	1.38288982E+0
1.09227209E+3	2.67829700E-1	1.38287358E+0
1.09232027E+3	2.67856900E-1	1.38288669E+0
1.09236525E+3	2.67783000E-1	1.38290873E+0
1.09240294E+3	2.67802500E-1	1.38291692E+0
1.09249188E+3	2.67818000E-1	1.38291173E+0
1.09252016E+3	2.67841300E-1	1.38292260E+0
1.09253821E+3	2.67996800E-1	1.38286209E+0
1.09261947E+3	2.67853000E-1	1.38286679E+0
1.09262487E+3	2.67849100E-1	1.38289093E+0
1.09264540E+3	2.68008400E-1	1.38291718E+0
1.09269350E+3	2.67833500E-1	1.38287045E+0
1.09271061E+3	2.67946200E-1	1.38290672E+0
1.09280499E+3	2.67860700E-1	1.38288530E+0
1.09282305E+3	2.67829700E-1	1.38288490E+0
1.09284511E+3	2.67853000E-1	1.38291012E+0
1.09285533E+3	2.67806300E-1	1.38292796E+0
1.09290955E+3	2.67907400E-1	1.38294071E+0
1.09297038E+3	2.67814100E-1	1.38295086E+0
1.09297078E+3	2.67957900E-1	1.38292574E+0
1.09300998E+3	2.67934600E-1	1.38292998E+0
1.09301156E+3	2.67969600E-1	1.38293132E+0
1.09303205E+3	2.67872400E-1	1.38291871E+0
1.09307811E+3	2.67926800E-1	1.38294742E+0
1.09308243E+3	2.67887900E-1	1.38295390E+0
1.09312305E+3	2.68008400E-1	1.38298981E+0
1.09316745E+3	2.67989000E-1	1.38302259E+0
1.09316975E+3	2.67985100E-1	1.38299916E+0
1.09319010E+3	2.67950200E-1	1.38297908E+0
1.09323941E+3	2.67884100E-1	1.38295940E+0
1.09327214E+3	2.67977400E-1	1.38299254E+0
1.09328777E+3	2.67845200E-1	1.38301472E+0
1.09329218E+3	2.68027900E-1	1.38298435E+0
1.09332095E+3	2.67981200E-1	1.38299625E+0
1.09334554E+3	2.67853000E-1	1.38302259E+0
1.09338336E+3	2.67884100E-1	1.38299477E+0
1.09338895E+3	2.67887900E-1	1.38297662E+0
1.09339705E+3	2.67845200E-1	1.38297917E+0
1.09345505E+3	2.67853000E-1	1.38296843E+0
1.09345402E+3	2.67985100E-1	1.38295846E+0
1.09346064E+3	2.67856900E-1	1.38295198E+0
1.09347732E+3	2.67899600E-1	1.38299652E+0
1.09348768E+3	2.67794700E-1	1.38297331E+0
1.09352609E+3	2.67868500E-1	1.38295676E+0
1.09354261E+3	2.67891900E-1	1.38300010E+0
1.09357810E+3	2.68004600E-1	1.38304495E+0
1.09358309E+3	2.67938500E-1	1.38299196E+0
1.09359894E+3	2.68020100E-1	1.38298614E+0
1.09361862E+3	2.67860700E-1	1.38299719E+0
1.09362929E+3	2.68020100E-1	1.38301146E+0
1.09362610E+3	2.67996800E-1	1.38301879E+0
1.09365176E+3	2.67833500E-1	1.38302599E+0
1.09368558E+3	2.67825700E-1	1.38302228E+0
1.09369152E+3	2.67946200E-1	1.38305385E+0
1.09371107E+3	2.67794700E-1	1.38299750E+0
1.09372232E+3	2.68004600E-1	1.38301584E+0
1.09372291E+3	2.67880200E-1	1.38301320E+0
1.09374205E+3	2.67926800E-1	1.38301714E+0
1.09376181E+3	2.67856900E-1	1.38304231E+0
1.09377514E+3	2.68020100E-1	1.38304245E+0
1.09379977E+3	2.67915200E-1	1.38304571E+0
1.09380354E+3	2.67981200E-1	1.38303775E+0
1.09381601E+3	2.67845200E-1	1.38301253E+0
1.09383334E+3	2.67989000E-1	1.38299142E+0
1.09385248E+3	2.67837400E-1	1.38301517E+0
1.09384852E+3	2.67954000E-1	1.38298248E+0
1.09386685E+3	2.67954000E-1	1.38298735E+0
1.09386653E+3	2.67829700E-1	1.38299732E+0
1.09387882E+3	2.67891900E-1	1.38296763E+0
1.09390269E+3	2.67841300E-1	1.38298597E+0
1.09390755E+3	2.67961800E-1	1.38297796E+0
1.09392358E+3	2.67965700E-1	1.38296539E+0
1.09392954E+3	2.67985100E-1	1.38296942E+0
1.09395516E+3	2.67829700E-1	1.38297143E+0
1.09395084E+3	2.67771300E-1	1.38298297E+0
1.09395080E+3	2.67845200E-1	1.38294849E+0
1.09397430E+3	2.68016200E-1	1.38296378E+0
1.09396300E+3	2.67806300E-1	1.38297264E+0
1.09398286E+3	2.67860700E-1	1.38294540E+0
1.09397862E+3	2.67821900E-1	1.38293472E+0
1.09399326E+3	2.67942400E-1	1.38294970E+0
1.09399429E+3	2.67755800E-1	1.38293275E+0
1.09398290E+3	2.67779100E-1	1.38294575E+0
1.09400650E+3	2.67922900E-1	1.38294152E+0
1.09402735E+3	2.67845200E-1	1.38296405E+0
1.09402437E+3	2.67981200E-1	1.38293271E+0
1.09403194E+3	2.67876300E-1	1.38296110E+0
1.09404554E+3	2.68000700E-1	1.38293794E+0
1.09403608E+3	2.67845200E-1	1.38294371E+0
1.09404774E+3	2.67860700E-1	1.38291410E+0
1.09406549E+3	2.67946200E-1	1.38290784E+0
1.09407584E+3	2.67814100E-1	1.38290239E+0
1.09407922E+3	2.67853000E-1	1.38287327E+0
1.09410049E+3	2.67872400E-1	1.38288602E+0
1.09409865E+3	2.67954000E-1	1.38290301E+0
1.09409671E+3	2.67887900E-1	1.38286598E+0
1.09409969E+3	2.67876300E-1	1.38286379E+0
1.09411369E+3	2.67779100E-1	1.38287618E+0
1.09412486E+3	2.67814100E-1	1.38280221E+0
1.09413580E+3	2.67759700E-1	1.38284582E+0
1.09412630E+3	2.67891900E-1	1.38283177E+0
1.09411527E+3	2.67946200E-1	1.38282529E+0
1.09412301E+3	2.67965700E-1	1.38284810E+0
1.09416318E+3	2.67926800E-1	1.38283830E+0
1.09416287E+3	2.67829700E-1	1.38283039E+0
1.09416928E+3	2.67981200E-1	1.38282457E+0
1.09416797E+3	2.67818000E-1	1.38284474E+0
1.09416361E+3	2.67841300E-1	1.38281134E+0
1.09417293E+3	2.67790800E-1	1.38284286E+0
1.09417428E+3	2.67856900E-1	1.38283893E+0
1.09419080E+3	2.67946200E-1	1.38285105E+0
1.09418851E+3	2.67806300E-1	1.38288302E+0
1.09418427E+3	2.67829700E-1	1.38285149E+0
1.09421026E+3	2.67860700E-1	1.38287028E+0
1.09421273E+3	2.67821900E-1	1.38286759E+0
1.09421850E+3	2.67771300E-1	1.38285203E+0
1.09422494E+3	2.67833500E-1	1.38283951E+0
1.09422696E+3	2.67821900E-1	1.38283763E+0
1.09423786E+3	2.67794700E-1	1.38284796E+0
1.09424488E+3	2.67833500E-1	1.38284734E+0
1.09424669E+3	2.67814100E-1	1.38282471E+0
1.09425745E+3	2.67821900E-1	1.38277498E+0
1.09425709E+3	2.67763600E-1	1.38282963E+0
1.09423840E+3	2.67903500E-1	1.38281165E+0
1.09425146E+3	2.67786900E-1	1.38281187E+0
1.09427090E+3	2.67806300E-1	1.38282493E+0
1.09425011E+3	2.67825700E-1	1.38279246E+0
1.09423210E+3	2.67969600E-1	1.38273205E+0
1.09426524E+3	2.67961800E-1	1.38279846E+0
1.09428064E+3	2.67841300E-1	1.38281518E+0
1.09428064E+3	2.67919100E-1	1.38280382E+0
1.09428956E+3	2.67821900E-1	1.38279908E+0
1.09429208E+3	2.67926800E-1	1.38278258E+0
1.09428559E+3	2.67790800E-1	1.38282542E+0
1.09431014E+3	2.67829700E-1	1.38282180E+0
1.09430476E+3	2.67794700E-1	1.38280168E+0
1.09430277E+3	2.67860700E-1	1.38277200E+0
1.09430691E+3	2.67934600E-1	1.38280244E+0
1.09430097E+3	2.67946200E-1	1.38281326E+0
1.09433087E+3	2.67841300E-1	1.38281322E+0
1.09432718E+3	2.67946200E-1	1.38280128E+0
1.09432312E+3	2.67973400E-1	1.38279770E+0
1.09431574E+3	2.67818000E-1	1.38278790E+0
1.09434703E+3	2.67829700E-1	1.38283481E+0
1.09433015E+3	2.67957900E-1	1.38285378E+0
1.09433299E+3	2.67833500E-1	1.38284883E+0
1.09433706E+3	2.67930700E-1	1.38281836E+0
1.09434310E+3	2.67783000E-1	1.38282833E+0
1.09433585E+3	2.67860700E-1	1.38279604E+0
1.09433607E+3	2.67779100E-1	1.38281161E+0
1.09434535E+3	2.67884100E-1	1.38283897E+0
1.09434593E+3	2.67911300E-1	1.38282019E+0
1.09435616E+3	2.67818000E-1	1.38281156E+0
1.09435548E+3	2.67825700E-1	1.38280745E+0
1.09437304E+3	2.67825700E-1	1.38278683E+0
1.09437183E+3	2.67794700E-1	1.38280964E+0
1.09436548E+3	2.67961800E-1	1.38281527E+0
1.09438340E+3	2.67837400E-1	1.38284461E+0
1.09438723E+3	2.67853000E-1	1.38285695E+0
1.09438610E+3	2.67806300E-1	1.38282864E+0
1.09437511E+3	2.67802500E-1	1.38283486E+0
1.09438308E+3	2.67899600E-1	1.38282663E+0
1.09441271E+3	2.67957900E-1	1.38286813E+0
1.09440542E+3	2.67837400E-1	1.38283732E+0
1.09440582E+3	2.67856900E-1	1.38285744E+0
1.09440609E+3	2.67950200E-1	1.38288960E+0
1.09440051E+3	2.67837400E-1	1.38289787E+0
1.09439812E+3	2.67961800E-1	1.38287904E+0
1.09440328E+3	2.68000700E-1	1.38288334E+0
1.09440472E+3	2.67950200E-1	1.38287292E+0
1.09440508E+3	2.67938500E-1	1.38288356E+0
1.09440693E+3	2.67786900E-1	1.38290055E+0
1.09439778E+3	2.67783000E-1	1.38288338E+0
1.09439927E+3	2.67950200E-1	1.38286849E+0
1.09440004E+3	2.67946200E-1	1.38286491E+0
1.09437617E+3	2.67895700E-1	1.38288441E+0
1.09436590E+3	2.67930700E-1	1.38289590E+0
