# Begin of measurement: 22.11.2018 11:20:44
# R-Sample[Ohm]	I-Coil[A]	U-Magnetometer[V]
# Kei2000	HP E3631A +6V : I	Kei2000
1.09444373E+3	-1.14857400E-2	-6.89572714E-2
1.09446430E+3	-1.14857400E-2	-6.89505633E-2
1.09445861E+3	-1.14857400E-2	-6.89700614E-2
1.09446478E+3	-1.15712500E-2	-6.89940763E-2
1.09447712E+3	-1.16567700E-2	-6.89803919E-2
1.09447428E+3	-1.15051800E-2	-6.89941658E-2
1.09447500E+3	-1.14624200E-2	-6.89798999E-2
1.09447370E+3	-1.15984600E-2	-6.90031546E-2
1.09448761E+3	-1.16140100E-2	-6.89856242E-2
1.09448941E+3	-1.16373300E-2	-6.90134403E-2
1.09448788E+3	-1.16684300E-2	-6.90395123E-2
1.09449093E+3	-1.16645400E-2	-6.90057931E-2
1.09448985E+3	-1.14896300E-2	-6.90178229E-2
1.09448830E+3	-1.16140100E-2	-6.90160788E-2
1.09449114E+3	-1.16451100E-2	-6.90637061E-2
1.09451176E+3	-1.16062400E-2	-6.90622303E-2
1.09450123E+3	-1.14935200E-2	-6.90209533E-2
1.09449713E+3	-1.16179000E-2	-6.90230105E-2
1.09450177E+3	-1.15246100E-2	-6.90300316E-2
1.09450253E+3	-1.15129500E-2	-6.90495744E-2
1.09450096E+3	-1.14740800E-2	-6.90110701E-2
1.09452199E+3	-1.15595900E-2	-6.89646950E-2
1.09452272E+3	-1.15129500E-2	-6.90033335E-2
1.09450638E+3	-1.15634800E-2	-6.90243924E-2
1.09451426E+3	-1.15634800E-2	-6.90169241E-2
1.09452016E+3	-1.16334500E-2	-6.90316371E-2
1.09452227E+3	-1.16217800E-2	-6.90277464E-2
1.09451993E+3	-1.16256700E-2	-6.90334706E-2
1.09452164E+3	-1.14818600E-2	-6.89928645E-2
1.09453443E+3	-1.16489900E-2	-6.89751999E-2
1.09452727E+3	-9.11863100E-3	-6.89557912E-2
1.09451304E+3	-6.64657300E-3	-5.91153717E-2
1.09453780E+3	-4.20949600E-3	-4.57193594E-2
1.09453267E+3	-1.83460900E-3	-3.20620450E-2
1.09451110E+3	6.49109700E-4	-1.94249383E-2
1.09454591E+3	3.17169800E-3	-8.57919904E-3
1.09454199E+3	5.61654800E-3	5.82649814E-3
1.09453055E+3	8.05751100E-3	1.96809149E-2
1.09455572E+3	1.03818700E-2	3.11693424E-2
1.09454396E+3	1.28539300E-2	4.20006444E-2
1.09452821E+3	1.52404700E-2	5.55357581E-2
1.09455095E+3	1.76581200E-2	6.83153609E-2
1.09454424E+3	2.01418400E-2	7.97327272E-2
1.09455640E+3	2.27382700E-2	9.30816241E-2
1.09455104E+3	2.50781800E-2	1.07371220E-1
1.09454343E+3	2.74647300E-2	1.19595392E-1
1.09455775E+3	2.98357200E-2	1.31598689E-1
1.09455934E+3	3.23816300E-2	1.44880863E-1
1.09455988E+3	3.49275400E-2	1.56618653E-1
1.09455033E+3	3.72596700E-2	1.68176710E-1
1.09458266E+3	3.96540000E-2	1.82499936E-1
1.09456091E+3	4.20522000E-2	1.94444917E-1
1.09457622E+3	4.46564100E-2	2.09176085E-1
1.09455339E+3	4.71362500E-2	2.20839013E-1
1.09457543E+3	4.95111300E-2	2.32469071E-1
1.09456836E+3	5.19054600E-2	2.45815553E-1
1.09455260E+3	5.44358200E-2	2.56554104E-1
1.09454990E+3	5.70827900E-2	2.71172978E-1
1.09458602E+3	5.93566100E-2	2.85080302E-1
1.09457016E+3	6.19375000E-2	2.96943265E-1
1.09456170E+3	6.43706900E-2	3.09808955E-1
1.09458489E+3	6.66328600E-2	3.21987557E-1
1.09458805E+3	6.92370700E-2	3.34288157E-1
1.09457365E+3	7.17946300E-2	3.46197048E-1
1.09459310E+3	7.40723600E-2	3.60810869E-1
1.09457193E+3	7.65560800E-2	3.72819309E-1
1.09458432E+3	7.91097600E-2	3.85426155E-1
1.09459256E+3	8.14263400E-2	3.97575152E-1
1.09459346E+3	8.38983900E-2	4.11142062E-1
1.09458802E+3	8.64598600E-2	4.23894832E-1
1.09458280E+3	8.89124800E-2	4.36491528E-1
1.09459208E+3	9.12368400E-2	4.48675540E-1
1.09457312E+3	9.36894600E-2	4.61443247E-1
1.09458929E+3	9.58272500E-2	4.74398245E-1
1.09458226E+3	9.83848200E-2	4.84735830E-1
1.09458316E+3	1.01179500E-1	4.97129986E-1
1.09457407E+3	1.03422200E-1	5.11367348E-1
1.09459412E+3	1.05680500E-1	5.24486381E-1
1.09460250E+3	1.08444100E-1	5.34529526E-1
1.09459718E+3	1.11071600E-1	5.50202735E-1
1.09460831E+3	1.13209400E-1	5.62078398E-1
1.09458314E+3	1.15549300E-1	5.75034111E-1
1.09461371E+3	1.18138000E-1	5.86639125E-1
1.09460687E+3	1.20578900E-1	5.99774884E-1
1.09458515E+3	1.22868300E-1	6.11521439E-1
1.09460564E+3	1.25464700E-1	6.23837825E-1
1.09459461E+3	1.28069000E-1	6.37961329E-1
1.09459128E+3	1.30370000E-1	6.51778853E-1
1.09461506E+3	1.32880900E-1	6.62821103E-1
1.09460276E+3	1.35644500E-1	6.75473117E-1
1.09458669E+3	1.37968800E-1	6.89581371E-1
1.09460796E+3	1.40308800E-1	7.02892747E-1
1.09460058E+3	1.42874100E-1	7.13583045E-1
1.09460787E+3	1.45221800E-1	7.26612905E-1
1.09461165E+3	1.47553900E-1	7.40246136E-1
1.09461593E+3	1.49994900E-1	7.52975472E-1
1.09462462E+3	1.52626300E-1	7.65372758E-1
1.09461260E+3	1.55366500E-1	7.91776916E-1
1.09460112E+3	1.57904700E-1	7.92954903E-1
1.09462369E+3	1.59922000E-1	8.05372581E-1
1.09462423E+3	1.62568900E-1	8.16038417E-1
1.09462369E+3	1.64897200E-1	8.30016949E-1
1.09463842E+3	1.67283700E-1	8.41844784E-1
1.09460901E+3	1.70093900E-1	8.53050889E-1
1.09462221E+3	1.72492100E-1	8.68645523E-1
1.09462855E+3	1.74832100E-1	8.79986953E-1
1.09462563E+3	1.77265200E-1	8.93288714E-1
1.09461592E+3	1.79846100E-1	9.04287181E-1
1.09462696E+3	1.82407600E-1	9.18366857E-1
1.09461048E+3	1.84627000E-1	9.31248870E-1
1.09461385E+3	1.86920300E-1	9.43839169E-1
1.09462362E+3	1.89512800E-1	9.55271784E-1
1.09463020E+3	1.91798300E-1	9.68749565E-1
1.09461565E+3	1.94320900E-1	9.80846685E-1
1.09462414E+3	1.96894000E-1	9.91743591E-1
1.09462990E+3	1.99416600E-1	1.00605541E+0
1.09463305E+3	2.01674900E-1	1.01961114E+0
1.09462215E+3	2.04251900E-1	1.03144535E+0
1.09462720E+3	2.06650100E-1	1.04321793E+0
1.09461842E+3	2.09277600E-1	1.05639304E+0
1.09462846E+3	2.11695300E-1	1.06971921E+0
1.09461334E+3	2.14058500E-1	1.08242038E+0
1.09462013E+3	2.16728800E-1	1.09373681E+0
1.09461436E+3	2.18990900E-1	1.10796509E+0
1.09463278E+3	2.21396900E-1	1.12026917E+0
1.09463463E+3	2.23911700E-1	1.13256923E+0
1.09462999E+3	2.26516000E-1	1.14427393E+0
1.09463823E+3	2.28731500E-1	1.15860171E+0
1.09463350E+3	2.31219100E-1	1.17122779E+0
1.09463584E+3	2.33780600E-1	1.18128457E+0
1.09464336E+3	2.36085500E-1	1.19535141E+0
1.09464313E+3	2.38790700E-1	1.20903799E+0
1.09462917E+3	2.41041300E-1	1.22174063E+0
1.09463363E+3	2.43707600E-1	1.23275202E+0
1.09464372E+3	2.46187500E-1	1.24726228E+0
1.09463286E+3	2.48558500E-1	1.26069368E+0
1.09465441E+3	2.50832300E-1	1.27213546E+0
1.09464182E+3	2.53611400E-1	1.28360680E+0
1.09464979E+3	2.55935800E-1	1.29902192E+0
1.09464637E+3	2.58287300E-1	1.31075547E+0
1.09463570E+3	2.60650600E-1	1.32325722E+0
1.09464304E+3	2.63344200E-1	1.33441265E+0
1.09465029E+3	2.65653000E-1	1.34759621E+0
1.09463921E+3	2.68292200E-1	1.36097479E+0
1.09463191E+3	2.70585400E-1	1.37170104E+0
1.09464911E+3	2.73706600E-1	1.38437255E+0
1.09464078E+3	2.75941600E-1	1.40038299E+0
1.09463785E+3	2.78102700E-1	1.41396855E+0
1.09462957E+3	2.80252100E-1	1.42219943E+0
1.09463984E+3	2.82840800E-1	1.43525290E+0
1.09465402E+3	2.85511100E-1	1.44922148E+0
1.09464506E+3	2.87761600E-1	1.46188619E+0
1.09465893E+3	2.90039300E-1	1.47230956E+0
1.09465055E+3	2.92900100E-1	1.48666250E+0
1.09462939E+3	2.95675300E-1	1.50126912E+0
1.09465533E+3	2.98108500E-1	1.51463849E+0
1.09463898E+3	3.00716600E-1	1.52683725E+0
1.09465321E+3	3.03254700E-1	1.54028475E+0
1.09463015E+3	3.05466400E-1	1.55326389E+0
1.09463484E+3	3.07961700E-1	1.56608132E+0
1.09463704E+3	3.10519300E-1	1.57747185E+0
1.09461813E+3	3.12948600E-1	1.59152527E+0
1.09464889E+3	3.15385700E-1	1.60347655E+0
1.09462570E+3	3.17923800E-1	1.61533629E+0
1.09463745E+3	3.20395900E-1	1.62844812E+0
1.09464087E+3	3.22860100E-1	1.64231066E+0
1.09466122E+3	3.25308900E-1	1.65374658E+0
1.09463468E+3	3.27609900E-1	1.66564616E+0
1.09466309E+3	3.30148100E-1	1.67904845E+0
1.09465548E+3	3.32631800E-1	1.69237949E+0
1.09465219E+3	3.34975600E-1	1.70492873E+0
1.09466057E+3	3.37408800E-1	1.71655556E+0
1.09463197E+3	3.40086800E-1	1.72946306E+0
1.09464961E+3	3.42422800E-1	1.74429909E+0
1.09464624E+3	3.44902700E-1	1.75381421E+0
1.09463593E+3	3.47662400E-1	1.76801722E+0
1.09465309E+3	3.50048900E-1	1.78067594E+0
1.09464147E+3	3.52427700E-1	1.79332298E+0
1.09461959E+3	3.54903700E-1	1.80402781E+0
1.09461513E+3	3.57360100E-1	1.81893991E+0
1.09464985E+3	3.59735000E-1	1.83183305E+0
1.09463494E+3	3.62323700E-1	1.84376568E+0
1.09463107E+3	3.64539200E-1	1.85525531E+0
1.09463467E+3	3.67221200E-1	1.86795392E+0
1.09463332E+3	3.69242300E-1	1.88194439E+0
1.09463125E+3	3.71539500E-1	1.89005425E+0
1.09464016E+3	3.74217600E-1	1.90407198E+0
1.09462589E+3	3.76856800E-1	1.91691490E+0
1.09461826E+3	3.78998400E-1	1.93072795E+0
1.09462995E+3	3.81369400E-1	1.94014880E+0
1.09461780E+3	3.84622800E-1	1.95405053E+0
1.09462932E+3	3.86301900E-1	1.96777551E+0
1.09462527E+3	3.88910000E-1	1.97924685E+0
1.09463846E+3	3.91545300E-1	1.99002359E+0
1.09461370E+3	3.93873500E-1	2.00422986E+0
1.09462823E+3	3.96217300E-1	2.01706169E+0
1.09461802E+3	3.98600000E-1	2.02828424E+0
1.09462473E+3	4.01262500E-1	2.04106438E+0
1.09462131E+3	4.03571300E-1	2.05473052E+0
1.09460428E+3	4.06152200E-1	2.06760023E+0
1.09462081E+3	4.08931300E-1	2.07988848E+0
1.09460559E+3	4.11325600E-1	2.09452433E+0
1.09463117E+3	4.13817100E-1	2.10767220E+0
1.09461033E+3	4.16475800E-1	2.11921675E+0
1.09463231E+3	4.18889500E-1	2.13161774E+0
1.09462380E+3	4.21256600E-1	2.14478184E+0
1.09462853E+3	4.23926900E-1	2.15718775E+0
1.09461893E+3	4.26286300E-1	2.17064737E+0
1.09461042E+3	4.28583400E-1	2.18244740E+0
1.09463244E+3	4.31172100E-1	2.19605615E+0
1.09460913E+3	4.33655800E-1	2.20787421E+0
1.09460234E+3	4.36100600E-1	2.21906760E+0
1.09461711E+3	4.38619300E-1	2.23314472E+0
1.09460877E+3	4.41021400E-1	2.24587141E+0
1.09461846E+3	4.43462400E-1	2.25728470E+0
1.09460495E+3	4.46078300E-1	2.26976775E+0
1.09460941E+3	4.48659200E-1	2.28389142E+0
1.09461625E+3	4.50711400E-1	2.29657420E+0
1.09461638E+3	4.53342900E-1	2.30746318E+0
1.09462043E+3	4.55935400E-1	2.31985080E+0
1.09461318E+3	4.58294800E-1	2.33314481E+0
1.09461445E+3	4.60599700E-1	2.34512377E+0
1.09461107E+3	4.63312700E-1	2.35665723E+0
1.09459058E+3	4.65551600E-1	2.37020523E+0
1.09460436E+3	4.68116900E-1	2.38348028E+0
1.09461531E+3	4.70585100E-1	2.39638192E+0
1.09459057E+3	4.73154300E-1	2.40753467E+0
1.09459359E+3	4.75435900E-1	2.42058192E+0
1.09460557E+3	4.77873000E-1	2.43327075E+0
1.09459314E+3	4.80457800E-1	2.44578980E+0
1.09460296E+3	4.82914300E-1	2.45838761E+0
1.09457526E+3	4.85285300E-1	2.47083229E+0
1.09458265E+3	4.87691300E-1	2.48469264E+0
1.09459401E+3	4.90307100E-1	2.49659138E+0
1.09460441E+3	4.92771400E-1	2.50773232E+0
1.09460221E+3	4.95177400E-1	2.52103912E+0
1.09456933E+3	4.97548400E-1	2.53381035E+0
1.09457433E+3	5.00183700E-1	2.54436411E+0
1.09457177E+3	5.02694600E-1	2.55814799E+0
1.09458032E+3	5.05038500E-1	2.57107441E+0
1.09456845E+3	5.07487200E-1	2.58380217E+0
1.09456046E+3	5.09982500E-1	2.59472134E+0
1.09458928E+3	5.12462400E-1	2.60837334E+0
1.09457645E+3	5.14985000E-1	2.62133665E+0
1.09454794E+3	5.17597000E-1	2.63367015E+0
1.09456424E+3	5.19975700E-1	2.64516193E+0
1.09456519E+3	5.22210600E-1	2.65917858E+0
1.09456331E+3	5.24682800E-1	2.67143942E+0
1.09457070E+3	5.27069300E-1	2.68291733E+0
1.09456102E+3	5.29735700E-1	2.69477917E+0
1.09454877E+3	5.32320500E-1	2.70852522E+0
1.09457777E+3	5.34675900E-1	2.72146710E+0
1.09456079E+3	5.37291800E-1	2.73371000E+0
1.09455305E+3	5.39748300E-1	2.74667966E+0
1.09454620E+3	5.42162100E-1	2.75837156E+0
1.09455804E+3	5.44533100E-1	2.77105259E+0
1.09455723E+3	5.47195600E-1	2.78217676E+0
1.09455930E+3	5.49601600E-1	2.79582098E+0
1.09455795E+3	5.51964800E-1	2.80894747E+0
1.09453737E+3	5.54464100E-1	2.82172353E+0
1.09451306E+3	5.57002200E-1	2.83259270E+0
1.09454219E+3	5.59369300E-1	2.84801734E+0
1.09452449E+3	5.61837500E-1	2.85955307E+0
1.09453115E+3	5.64150100E-1	2.87222668E+0
1.09454367E+3	5.66762200E-1	2.88268795E+0
1.09453133E+3	5.69144800E-1	2.89654031E+0
1.09452476E+3	5.71729600E-1	2.90931929E+0
1.09454052E+3	5.74057800E-1	2.92010758E+0
1.09453561E+3	5.76720400E-1	2.93463378E+0
1.09451810E+3	5.78982500E-1	2.94649785E+0
1.09451919E+3	5.81369100E-1	2.95939171E+0
1.09453149E+3	5.84171500E-1	2.96951132E+0
1.09450879E+3	5.86410300E-1	2.98475269E+0
1.09453306E+3	5.88855200E-1	2.99762855E+0
1.09452324E+3	5.91167900E-1	3.00930238E+0
1.09450951E+3	5.93818700E-1	3.02061518E+0
1.09450654E+3	5.96220900E-1	3.03529012E+0
1.09448875E+3	5.98704600E-1	3.04792898E+0
1.09450504E+3	6.01219400E-1	3.05948506E+0
1.09451617E+3	6.03613700E-1	3.07130514E+0
1.09449698E+3	6.05996400E-1	3.08448812E+0
1.09449293E+3	6.08522800E-1	3.09774228E+0
1.09450437E+3	6.11200900E-1	3.11140985E+0
1.09447969E+3	6.13847900E-1	3.12251778E+0
1.09448704E+3	6.16020600E-1	3.13720403E+0
1.09447313E+3	6.18539300E-1	3.14892468E+0
1.09447737E+3	6.21143500E-1	3.16207327E+0
1.09448642E+3	6.23491200E-1	3.17369446E+0
1.09444981E+3	6.26052700E-1	3.18712545E+0
1.09447948E+3	6.28563600E-1	3.20051650E+0
1.09446021E+3	6.31132800E-1	3.21405478E+0
1.09446773E+3	6.33332800E-1	3.22570046E+0
1.09447333E+3	6.35867100E-1	3.23896647E+0
1.09446273E+3	6.38409100E-1	3.25268152E+0
1.09445886E+3	6.40830700E-1	3.26711247E+0
1.09446282E+3	6.43267700E-1	3.27956202E+0
1.09445660E+3	6.45821400E-1	3.29373577E+0
1.09446696E+3	6.48297300E-1	3.30845105E+0
1.09444445E+3	6.50800500E-1	3.32458455E+0
1.09445927E+3	6.53082100E-1	3.33739817E+0
1.09445577E+3	6.55495800E-1	3.35368395E+0
1.09445054E+3	6.58259400E-1	3.37036635E+0
1.09444874E+3	6.60638100E-1	3.38942195E+0
1.09445671E+3	6.62912000E-1	3.40722330E+0
1.09446630E+3	6.65341300E-1	3.42552641E+0
1.09444415E+3	6.67836700E-1	3.45051640E+0
1.09446585E+3	6.70308800E-1	3.47955986E+0
1.09443994E+3	6.72586400E-1	3.51209321E+0
1.09447799E+3	6.74953600E-1	3.54552631E+0
1.09446777E+3	6.77207900E-1	3.58333021E+0
1.09445840E+3	6.79757800E-1	3.62093069E+0
1.09447407E+3	6.82058800E-1	3.66028202E+0
1.09449127E+3	6.84484200E-1	3.70235272E+0
1.09447006E+3	6.86707500E-1	3.74294509E+0
1.09447132E+3	6.89167900E-1	3.78102493E+0
1.09446703E+3	6.91608900E-1	3.82234647E+0
1.09446720E+3	6.93976000E-1	3.86139625E+0
1.09445585E+3	6.96417000E-1	3.90272375E+0
1.09445247E+3	6.98574200E-1	3.93024617E+0
1.09447089E+3	7.00960700E-1	3.94940014E+0
1.09444261E+3	7.03386100E-1	3.96778291E+0
1.09444937E+3	7.05803800E-1	3.98087970E+0
1.09442697E+3	7.08271900E-1	3.99537097E+0
1.09442419E+3	7.10845000E-1	4.00907391E+0
1.09443207E+3	7.12909000E-1	4.02108893E+0
1.09441063E+3	7.15466500E-1	4.03519125E+0
1.09442883E+3	7.17759800E-1	4.04813165E+0
1.09440482E+3	7.20208600E-1	4.06021347E+0
1.09440140E+3	7.22571800E-1	4.07538494E+0
1.09439942E+3	7.24845600E-1	4.09024958E+0
1.09438748E+3	7.27403200E-1	4.09950433E+0
1.09439077E+3	7.29782000E-1	4.11400021E+0
1.09438284E+3	7.32114100E-1	4.12868310E+0
1.09438627E+3	7.34535600E-1	4.14024933E+0
1.09436213E+3	7.36937700E-1	4.15362679E+0
1.09435209E+3	7.39153300E-1	4.16861226E+0
1.09434898E+3	7.41718600E-1	4.17969162E+0
1.09435249E+3	7.43976900E-1	4.19286114E+0
1.09435490E+3	7.46344000E-1	4.20792588E+0
1.09433344E+3	7.48812200E-1	4.21938255E+0
1.09433745E+3	7.51202600E-1	4.23392569E+0
1.09431255E+3	7.53585200E-1	4.24727846E+0
1.09432673E+3	7.55983500E-1	4.25885855E+0
1.09432128E+3	7.58397200E-1	4.27273643E+0
1.09431075E+3	7.60698300E-1	4.28650090E+0
1.09430363E+3	7.63217000E-1	4.29903112E+0
1.09429909E+3	7.65486900E-1	4.31294818E+0
1.09429994E+3	7.67881200E-1	4.32649687E+0
1.09429007E+3	7.69890700E-1	4.33837865E+0
1.09429692E+3	7.72339500E-1	4.35083678E+0
1.09429827E+3	7.74784300E-1	4.36495391E+0
1.09428755E+3	7.77186400E-1	4.37720006E+0
1.09428944E+3	7.79386400E-1	4.39091010E+0
1.09426247E+3	7.81807900E-1	4.40449350E+0
1.09427380E+3	7.84213900E-1	4.41907711E+0
1.09427618E+3	7.86720900E-1	4.43010723E+0
1.09426749E+3	7.89072500E-1	4.44346581E+0
1.09427303E+3	7.91462900E-1	4.45827075E+0
1.09425020E+3	7.93818400E-1	4.48241210E+0
1.09424200E+3	7.96251600E-1	4.48372849E+0
1.09424227E+3	7.98506000E-1	4.50873751E+0
1.09422813E+3	8.01187900E-1	4.50997811E+0
1.09425147E+3	8.03508400E-1	4.52476185E+0
1.09424544E+3	8.05766700E-1	4.53701681E+0
1.09423499E+3	8.08164900E-1	4.54796954E+0
1.09423220E+3	8.10392100E-1	4.56288950E+0
1.09421779E+3	8.12856300E-1	4.57592480E+0
1.09422787E+3	8.15316800E-1	4.58711300E+0
1.09420657E+3	8.17738300E-1	4.60226287E+0
1.09420855E+3	8.20085900E-1	4.61562181E+0
1.09418775E+3	8.22367600E-1	4.62657021E+0
1.09420603E+3	8.24726900E-1	4.64142817E+0
1.09419576E+3	8.27268900E-1	4.65584386E+0
1.09419049E+3	8.29768200E-1	4.66652050E+0
1.09417100E+3	8.31847700E-1	4.68117156E+0
1.09418171E+3	8.34304100E-1	4.70667295E+0
1.09418928E+3	8.36986200E-1	4.70934849E+0
1.09417226E+3	8.39069500E-1	4.72282586E+0
1.09415955E+3	8.41572700E-1	4.73464744E+0
1.09416050E+3	8.43706500E-1	4.74709537E+0
1.09416676E+3	8.46174700E-1	4.75978123E+0
1.09414199E+3	8.48685600E-1	4.77423833E+0
1.09412672E+3	8.51083900E-1	4.78723521E+0
1.09413258E+3	8.53435400E-1	4.79978561E+0
1.09413114E+3	8.55806400E-1	4.81429878E+0
1.09411744E+3	8.58091900E-1	4.82633972E+0
1.09411647E+3	8.60513500E-1	4.83899292E+0
1.09408482E+3	8.63036100E-1	4.85364237E+0
1.09411328E+3	8.65418700E-1	4.86660642E+0
1.09409121E+3	8.67723600E-1	4.87972490E+0
1.09408230E+3	8.70308400E-1	4.89360202E+0
1.09410441E+3	8.72419000E-1	4.90551635E+0
1.09407770E+3	8.74821100E-1	4.91825698E+0
1.09408934E+3	8.77335800E-1	4.93257334E+0
1.09407439E+3	8.79668000E-1	4.94459459E+0
1.09407903E+3	8.82039000E-1	4.95825902E+0
1.09405467E+3	8.84320600E-1	4.97140831E+0
1.09404706E+3	8.86753800E-1	4.98395449E+0
1.09406453E+3	8.89074200E-1	4.99741866E+0
1.09407358E+3	8.91503600E-1	5.01161978E+0
1.09403856E+3	8.93971700E-1	5.02357619E+0
1.09404863E+3	8.96517700E-1	5.03726270E+0
1.09404156E+3	8.98783700E-1	5.05051284E+0
1.09405835E+3	9.01166300E-1	5.06289409E+0
1.09404642E+3	9.03455700E-1	5.07622803E+0
1.09404012E+3	9.05908400E-1	5.08931981E+0
1.09403300E+3	9.08260000E-1	5.10276086E+0
1.09404363E+3	9.10650300E-1	5.11637345E+0
1.09401707E+3	9.12935800E-1	5.13013626E+0
1.09403288E+3	9.15462300E-1	5.14297447E+0
1.09402356E+3	9.17899400E-1	5.15517957E+0
1.09403414E+3	9.20208300E-1	5.16961445E+0
1.09402860E+3	9.22610300E-1	5.18457152E+0
1.09401018E+3	9.24977400E-1	5.19688570E+0
1.09401973E+3	9.27453300E-1	5.20792538E+0
1.09403608E+3	9.29874900E-1	5.22072813E+0
1.09400364E+3	9.32261400E-1	5.23537636E+0
1.09399784E+3	9.34616900E-1	5.24802102E+0
1.09400897E+3	9.36882900E-1	5.26119276E+0
1.09401725E+3	9.39320000E-1	5.27420614E+0
1.09400933E+3	9.41745400E-1	5.28633580E+0
1.09398226E+3	9.44108700E-1	5.29994374E+0
1.09399149E+3	9.46390200E-1	5.31316579E+0
1.09399338E+3	9.48858500E-1	5.32658266E+0
1.09396933E+3	9.51202200E-1	5.33969738E+0
1.09398894E+3	9.53472100E-1	5.35220206E+0
1.09398692E+3	9.55901400E-1	5.36544025E+0
1.09398755E+3	9.58408500E-1	5.38012127E+0
1.09397089E+3	9.60686200E-1	5.39208586E+0
1.09396157E+3	9.63162200E-1	5.40608757E+0
1.09396985E+3	9.65533200E-1	5.41944579E+0
1.09398935E+3	9.67927500E-1	5.43100191E+0
1.09397404E+3	9.70321800E-1	5.44546526E+0
1.09396548E+3	9.72587900E-1	5.45873091E+0
1.09397804E+3	9.75145400E-1	5.47075016E+0
1.09397705E+3	9.77586400E-1	5.48657056E+0
1.09397201E+3	9.79848600E-1	5.49889471E+0
1.09396985E+3	9.82141800E-1	5.51003479E+0
1.09395517E+3	9.84516700E-1	5.52455991E+0
1.09396191E+3	9.84753800E-1	5.53869255E+0
1.09395847E+3	9.84866500E-1	5.53921726E+0
1.09394771E+3	9.84835400E-1	5.53940312E+0
1.09394150E+3	9.84680000E-1	5.53937240E+0
1.09395082E+3	9.84641100E-1	5.53936527E+0
1.09396117E+3	9.84866500E-1	5.53932285E+0
1.09396752E+3	9.84835400E-1	5.53933474E+0
1.09395473E+3	9.84823800E-1	5.53932137E+0
1.09397383E+3	9.84676100E-1	5.53928269E+0
1.09396847E+3	9.84816000E-1	5.53924539E+0
