# Begin of measurement: 22.11.2018 13:21:49
# R-Sample[Ohm]	I-Coil[A]	U-Magnetometer[V]
# Kei2000	HP E3631A +6V : I	Kei2000
1.09380630E+3	6.27910600E-1	3.21513733E+0
1.09381121E+3	6.27918400E-1	3.21511747E+0
1.09382098E+3	6.27961200E-1	3.21513500E+0
1.09385534E+3	6.27747300E-1	3.21515741E+0
1.09387501E+3	6.27751300E-1	3.21517149E+0
1.09387456E+3	6.27770700E-1	3.21514851E+0
1.09386685E+3	6.27933900E-1	3.21512910E+0
1.09388903E+3	6.27863900E-1	3.21508447E+0
1.09386636E+3	6.27848400E-1	3.21507382E+0
1.09391418E+3	6.27937800E-1	3.21511549E+0
1.09392585E+3	6.27751300E-1	3.21509899E+0
1.09393292E+3	6.27794000E-1	3.21508374E+0
1.09391036E+3	6.27910600E-1	3.21508432E+0
1.09389514E+3	6.27774600E-1	3.21509858E+0
1.09384038E+3	6.27902900E-1	3.21512537E+0
1.09381750E+3	6.27778500E-1	3.21511227E+0
1.09371799E+3	6.27743500E-1	3.21509331E+0
1.09363306E+3	6.27953300E-1	3.21515900E+0
1.09351351E+3	6.27770700E-1	3.21514138E+0
1.09334501E+3	6.27735700E-1	3.21513557E+0
1.09312554E+3	6.27937800E-1	3.21517260E+0
1.09293236E+3	6.27922300E-1	3.21518233E+0
1.09270247E+3	6.27906800E-1	3.21518984E+0
1.09241362E+3	6.27797900E-1	3.21522119E+0
1.09209486E+3	6.27875600E-1	3.21522056E+0
1.09136548E+3	6.27766800E-1	3.21526269E+0
1.09129014E+3	6.27910600E-1	3.21527999E+0
1.09092617E+3	6.27805700E-1	3.21525495E+0
1.09042891E+3	6.27786200E-1	3.21528804E+0
1.08997155E+3	6.27790100E-1	3.21531420E+0
1.08947710E+3	6.27782300E-1	3.21540190E+0
1.08892477E+3	6.27902900E-1	3.21545597E+0
1.08824105E+3	6.27922300E-1	3.21545449E+0
1.08768350E+3	6.27751300E-1	3.21545445E+0
1.08692268E+3	6.27794000E-1	3.21549234E+0
1.08628034E+3	6.27685200E-1	3.21552467E+0
1.08548188E+3	6.27895100E-1	3.21556107E+0
1.08471429E+3	6.27902900E-1	3.21560548E+0
1.08389273E+3	6.27860100E-1	3.21569420E+0
1.08302146E+3	6.27891200E-1	3.21574679E+0
1.08217820E+3	6.27790100E-1	3.21584568E+0
1.08031570E+3	6.27778500E-1	3.21590162E+0
1.08013293E+3	6.27782300E-1	3.21591942E+0
1.07921185E+3	6.27766800E-1	3.21612857E+0
1.07814634E+3	6.27739600E-1	3.21618845E+0
1.07600118E+3	6.27805700E-1	3.21629462E+0
1.07588955E+3	6.27887300E-1	3.21641032E+0
1.07466638E+3	6.27898900E-1	3.21658285E+0
1.07355272E+3	6.27743500E-1	3.21669139E+0
1.07226875E+3	6.27867900E-1	3.21686373E+0
1.07112006E+3	6.27794000E-1	3.21699691E+0
1.06968358E+3	6.27774600E-1	3.21724756E+0
1.06834455E+3	6.27708500E-1	3.21739692E+0
1.06690771E+3	6.27860100E-1	3.21755143E+0
1.06549964E+3	6.27871800E-1	3.21775924E+0
1.06397550E+3	6.27790100E-1	3.21790458E+0
1.06252902E+3	6.27766800E-1	3.21820304E+0
1.06127973E+3	6.27852300E-1	3.21845695E+0
1.05968344E+3	6.27735700E-1	3.21872335E+0
1.05667104E+3	6.27902900E-1	3.21898818E+0
1.05639586E+3	6.27735700E-1	3.21942213E+0
1.05496668E+3	6.27879500E-1	3.21970297E+0
1.05354970E+3	6.27794000E-1	3.22013881E+0
1.05204532E+3	6.27770700E-1	3.22053480E+0
1.05034029E+3	6.27867900E-1	3.22092565E+0
1.04855704E+3	6.27794000E-1	3.22149032E+0
1.04673525E+3	6.27774600E-1	3.22207758E+0
1.04323150E+3	6.27867900E-1	3.22273580E+0
1.04146014E+3	6.27906800E-1	3.22343969E+0
1.04114692E+3	6.27832900E-1	3.22422478E+0
1.03953658E+3	6.27743500E-1	3.22492330E+0
1.03786694E+3	6.27902900E-1	3.22578720E+0
1.03583189E+3	6.27724100E-1	3.22679184E+0
1.03391283E+3	6.27704600E-1	3.22800741E+0
1.03013988E+3	6.27941800E-1	3.22909087E+0
1.02840089E+3	6.27704600E-1	3.23070985E+0
1.02631690E+3	6.27712400E-1	3.23206910E+0
1.02595135E+3	6.27867900E-1	3.23354560E+0
1.02422497E+3	6.27696800E-1	3.23523181E+0
1.01971543E+3	6.27766800E-1	3.23691218E+0
1.01951586E+3	6.27867900E-1	3.23907021E+0
1.01730465E+3	6.27727900E-1	3.24121344E+0
1.01501518E+3	6.27786200E-1	3.24415875E+0
1.01335139E+3	6.27860100E-1	3.24680480E+0
1.01177527E+3	6.27887300E-1	3.24878927E+0
1.00960018E+3	6.27786200E-1	3.25121767E+0
1.00504799E+3	6.27805700E-1	3.25482694E+0
1.00485518E+3	6.27751300E-1	3.26203862E+0
1.00275371E+3	6.27883400E-1	3.26772667E+0
1.00048055E+3	6.27844500E-1	3.27493500E+0
9.95833786E+2	6.27755200E-1	3.28429572E+0
9.94016225E+2	6.27871800E-1	3.29600667E+0
9.93629108E+2	6.27689100E-1	3.30568097E+0
9.91032631E+2	6.27887300E-1	3.31407092E+0
9.88006078E+2	6.27844500E-1	3.32831264E+0
9.86263896E+2	6.27856200E-1	3.34167723E+0
9.84121764E+2	6.27922300E-1	3.35111268E+0
9.79541927E+2	6.27801800E-1	3.36330097E+0
9.79135538E+2	6.27739600E-1	3.37761813E+0
9.77075764E+2	6.27731800E-1	3.39159676E+0
9.73978291E+2	6.27724100E-1	3.40669660E+0
9.71213944E+2	6.27879500E-1	3.42371562E+0
9.68665693E+2	6.27887300E-1	3.44232487E+0
9.66491950E+2	6.27813500E-1	3.45847593E+0
9.64165796E+2	6.27879500E-1	3.47248282E+0
9.61816828E+2	6.27731800E-1	3.48876388E+0
9.59385382E+2	6.27821200E-1	3.50513492E+0
9.57389820E+2	6.27724100E-1	3.51893812E+0
9.55444916E+2	6.27813500E-1	3.53165316E+0
9.52987444E+2	6.27743500E-1	3.54290337E+0
9.50402133E+2	6.27856200E-1	3.55275099E+0
9.47007647E+2	6.27731800E-1	3.55944572E+0
9.44062217E+2	6.27914500E-1	3.56378087E+0
9.41719281E+2	6.27867900E-1	3.56524414E+0
9.39584038E+2	6.27766800E-1	3.56552864E+0
9.36855353E+2	6.27922300E-1	3.56557139E+0
9.32998865E+2	6.27883400E-1	3.56558056E+0
9.30312688E+2	6.27809600E-1	3.56555990E+0
9.28264801E+2	6.27782300E-1	3.56553253E+0
9.25418217E+2	6.27759000E-1	3.56551308E+0
9.22929511E+2	6.27867900E-1	3.56551044E+0
9.20625993E+2	6.27895100E-1	3.56552515E+0
9.18602377E+2	6.27906800E-1	3.56551102E+0
9.15954610E+2	6.27906800E-1	3.56553548E+0
9.12945618E+2	6.27895100E-1	3.56554031E+0
9.10019390E+2	6.27801800E-1	3.56551468E+0
9.06761341E+2	6.27797900E-1	3.56549666E+0
9.01515294E+2	6.27685200E-1	3.56552488E+0
9.01085940E+2	6.27774600E-1	3.56550977E+0
8.98073346E+2	6.27898900E-1	3.56554527E+0
8.91605655E+2	6.27910600E-1	3.56551272E+0
8.91316837E+2	6.27797900E-1	3.56549939E+0
8.86415264E+2	6.27778500E-1	3.56549009E+0
8.83543623E+2	6.27762900E-1	3.56550145E+0
8.81356866E+2	6.27821200E-1	3.56547672E+0
8.80842902E+2	6.27898900E-1	3.56552443E+0
8.76277112E+2	6.27677400E-1	3.56551705E+0
8.73396138E+2	6.27910600E-1	3.56551509E+0
8.72643609E+2	6.27743500E-1	3.56548360E+0
8.69513758E+2	6.27762900E-1	3.56550534E+0
8.66885083E+2	6.27902900E-1	3.56551030E+0
8.63761987E+2	6.27895100E-1	3.56547492E+0
8.60825987E+2	6.27790100E-1	3.56547492E+0
8.57780116E+2	6.27743500E-1	3.56548986E+0
8.55413467E+2	6.27700800E-1	3.56556450E+0
8.54112796E+2	6.27821200E-1	3.56551133E+0
8.51231102E+2	6.27895100E-1	3.56556342E+0
8.49024847E+2	6.27867900E-1	3.56548284E+0
8.46380592E+2	6.27879500E-1	3.56549688E+0
8.43617701E+2	6.27755200E-1	3.56551356E+0
8.40391210E+2	6.27832900E-1	3.56555278E+0
8.37053999E+2	6.27867900E-1	3.56555757E+0
8.35435332E+2	6.27871800E-1	3.56557268E+0
8.33925860E+2	6.27759000E-1	3.56555681E+0
8.27200600E+2	6.27887300E-1	3.56552818E+0
8.26649216E+2	6.27852300E-1	3.56551575E+0
8.23148819E+2	6.27856200E-1	3.56556289E+0
8.21062314E+2	6.27778500E-1	3.56556982E+0
8.18573403E+2	6.27906800E-1	3.56559209E+0
8.16118406E+2	6.27692900E-1	3.56560799E+0
8.13360092E+2	6.27778500E-1	3.56558020E+0
8.10388835E+2	6.27852300E-1	3.56561633E+0
8.07520784E+2	6.27797900E-1	3.56554599E+0
8.05404813E+2	6.27918400E-1	3.56558449E+0
8.02240324E+2	6.27724100E-1	3.56557948E+0
7.99182901E+2	6.27731800E-1	3.56554729E+0
7.97485973E+2	6.27856200E-1	3.56553284E+0
7.94875625E+2	6.27716300E-1	3.56557362E+0
7.92511452E+2	6.27852300E-1	3.56556920E+0
7.90047585E+2	6.27759000E-1	3.56557604E+0
7.87048679E+2	6.27809600E-1	3.56558011E+0
7.81870987E+2	6.27918400E-1	3.56562903E+0
7.81149168E+2	6.27902900E-1	3.56561222E+0
7.78367483E+2	6.27747300E-1	3.56556607E+0
7.73476357E+2	6.27797900E-1	3.56560350E+0
7.73199112E+2	6.27856200E-1	3.56562791E+0
7.71731562E+2	6.27879500E-1	3.56561606E+0
7.70157429E+2	6.27914500E-1	3.56565077E+0
7.67963872E+2	6.27727900E-1	3.56558802E+0
7.63398815E+2	6.27755200E-1	3.56557765E+0
7.61798425E+2	6.27762900E-1	3.56560426E+0
7.55001435E+2	6.27743500E-1	3.56556915E+0
7.54323610E+2	6.27902900E-1	3.56560318E+0
7.51451237E+2	6.27739600E-1	3.56559885E+0
7.49378674E+2	6.27716300E-1	3.56563051E+0
7.47050570E+2	6.27910600E-1	3.56563480E+0
7.44621510E+2	6.27906800E-1	3.56563784E+0
7.42163646E+2	6.27735700E-1	3.56560493E+0
7.38508267E+2	6.27774600E-1	3.56565689E+0
7.35384407E+2	6.27712400E-1	3.56560435E+0
7.34866931E+2	6.27770700E-1	3.56559368E+0
7.31666341E+2	6.27898900E-1	3.56563856E+0
7.31547779E+2	6.27727900E-1	3.56557542E+0
7.28566662E+2	6.27871800E-1	3.56564545E+0
7.26642807E+2	6.27895100E-1	3.56561996E+0
7.23664084E+2	6.27708500E-1	3.56559899E+0
7.21610931E+2	6.27770700E-1	3.56559984E+0
7.18436503E+2	6.27875600E-1	3.56558646E+0
7.16413834E+2	6.27895100E-1	3.56559496E+0
7.14875140E+2	6.27731800E-1	3.56557108E+0
7.13233823E+2	6.27735700E-1	3.56557434E+0
7.11377537E+2	6.27848400E-1	3.56554697E+0
7.07284939E+2	6.27863900E-1	3.56553172E+0
7.03404226E+2	6.27883400E-1	3.56546710E+0
7.01468778E+2	6.27844500E-1	3.56549903E+0
6.98820291E+2	6.27914500E-1	3.56551934E+0
6.96564055E+2	6.27704600E-1	3.56548723E+0
6.94279270E+2	6.27887300E-1	3.56545311E+0
6.92256285E+2	6.27735700E-1	3.56548347E+0
6.90658842E+2	6.27716300E-1	3.56543553E+0
6.87944299E+2	6.27867900E-1	3.56544899E+0
6.85961706E+2	6.27692900E-1	3.56542860E+0
6.83701508E+2	6.27661800E-1	3.56546017E+0
6.82064830E+2	6.27832900E-1	3.56543186E+0
6.81008939E+2	6.27673500E-1	3.56541102E+0
6.79149771E+2	6.27852300E-1	3.56537820E+0
6.78025732E+2	6.27891200E-1	3.56536581E+0
6.74666292E+2	6.27692900E-1	3.56535978E+0
6.69250802E+2	6.27856200E-1	3.56538625E+0
6.68502911E+2	6.27782300E-1	3.56537364E+0
6.65673947E+2	6.27891200E-1	3.56538214E+0
6.63975308E+2	6.27739600E-1	3.56532096E+0
6.63170950E+2	6.27762900E-1	3.56533201E+0
6.59848060E+2	6.27856200E-1	3.56533594E+0
6.57255973E+2	6.27735700E-1	3.56534591E+0
6.54207902E+2	6.27809600E-1	3.56533294E+0
6.52154162E+2	6.27848400E-1	3.56534283E+0
6.49732983E+2	6.27790100E-1	3.56533505E+0
6.48295694E+2	6.27805700E-1	3.56528621E+0
6.46727820E+2	6.27739600E-1	3.56526595E+0
6.43766380E+2	6.27805700E-1	3.56529990E+0
6.42416214E+2	6.27743500E-1	3.56528527E+0
6.40072331E+2	6.27887300E-1	3.56526783E+0
6.38597037E+2	6.27782300E-1	3.56525902E+0
6.35203857E+2	6.27856200E-1	3.56527666E+0
6.32309150E+2	6.27856200E-1	3.56529283E+0
6.29887026E+2	6.27790100E-1	3.56529104E+0
6.27830089E+2	6.27735700E-1	3.56530342E+0
6.26178325E+2	6.27731800E-1	3.56527896E+0
6.24870175E+2	6.27825100E-1	3.56532404E+0
6.22739120E+2	6.27743500E-1	3.56524922E+0
6.20681148E+2	6.27692900E-1	3.56526059E+0
6.19131152E+2	6.27720200E-1	3.56527660E+0
6.18471203E+2	6.27755200E-1	3.56529663E+0
6.16767566E+2	6.27848400E-1	3.56529149E+0
6.14618905E+2	6.27852300E-1	3.56526171E+0
6.13361230E+2	6.27755200E-1	3.56522124E+0
6.11518448E+2	6.27739600E-1	3.56518640E+0
6.08676652E+2	6.27848400E-1	3.56526104E+0
6.07187175E+2	6.27875600E-1	3.56524758E+0
6.04295036E+2	6.27813500E-1	3.56523653E+0
6.01468100E+2	6.27755200E-1	3.56522857E+0
5.99454031E+2	6.27724100E-1	3.56524713E+0
5.97757194E+2	6.27696800E-1	3.56525091E+0
5.96409250E+2	6.27770700E-1	3.56523796E+0
5.94318452E+2	6.27825100E-1	3.56521032E+0
5.91583376E+2	6.27735700E-1	3.56521390E+0
5.90103174E+2	6.27704600E-1	3.56519444E+0
5.88860592E+2	6.27696800E-1	3.56519699E+0
5.86493269E+2	6.27716300E-1	3.56516283E+0
5.85048236E+2	6.27727900E-1	3.56523549E+0
5.83771103E+2	6.27817300E-1	3.56520401E+0
5.82350956E+2	6.27762900E-1	3.56519904E+0
5.79910055E+2	6.27879500E-1	3.56516054E+0
5.76775253E+2	6.27743500E-1	3.56515544E+0
5.74679231E+2	6.27856200E-1	3.56516197E+0
5.73870235E+2	6.27735700E-1	3.56514189E+0
5.72548357E+2	6.27735700E-1	3.56516434E+0
5.70271659E+2	6.27895100E-1	3.56516470E+0
5.68946675E+2	6.27677400E-1	3.56517306E+0
5.65150439E+2	6.27696800E-1	3.56516761E+0
5.65046196E+2	6.27887300E-1	3.56517619E+0
5.63343685E+2	6.27762900E-1	3.56517539E+0
5.61050480E+2	6.27825100E-1	3.56514230E+0
5.60133549E+2	6.27891200E-1	3.56513071E+0
5.57733850E+2	6.27762900E-1	3.56510589E+0
5.57594980E+2	6.27696800E-1	3.56512593E+0
5.56801565E+2	6.27898900E-1	3.56514789E+0
5.55049792E+2	6.27657900E-1	3.56511137E+0
5.53557297E+2	6.27867900E-1	3.56509797E+0
5.49165999E+2	6.27712400E-1	3.56512574E+0
5.48980884E+2	6.27801800E-1	3.56508974E+0
5.47513966E+2	6.27879500E-1	3.56509663E+0
5.46213936E+2	6.27689100E-1	3.56510030E+0
5.44521886E+2	6.27863900E-1	3.56508178E+0
5.43244271E+2	6.27875600E-1	3.56508188E+0
5.41872186E+2	6.27836800E-1	3.56507799E+0
5.40360059E+2	6.27790100E-1	3.56510786E+0
5.38138992E+2	6.27848400E-1	3.56509279E+0
5.36647038E+2	6.27747300E-1	3.56507759E+0
5.34375088E+2	6.27766800E-1	3.56509127E+0
5.32763913E+2	6.27844500E-1	3.56505151E+0
5.31671593E+2	6.27813500E-1	3.56503720E+0
5.30455128E+2	6.27898900E-1	3.56501439E+0
5.28793458E+2	6.27821200E-1	3.56501345E+0
5.28225684E+2	6.27673500E-1	3.56499400E+0
5.26615078E+2	6.27751300E-1	3.56498989E+0
5.24952328E+2	6.27840700E-1	3.56496547E+0
5.23610906E+2	6.27751300E-1	3.56500107E+0
5.22094546E+2	6.27747300E-1	3.56502499E+0
5.20560174E+2	6.27762900E-1	3.56498210E+0
5.19368295E+2	6.27774600E-1	3.56496377E+0
5.17139212E+2	6.27751300E-1	3.56496413E+0
5.15594168E+2	6.27836800E-1	3.56499977E+0
5.12609719E+2	6.27759000E-1	3.56495876E+0
5.11357687E+2	6.27696800E-1	3.56497307E+0
5.10534568E+2	6.27700800E-1	3.56495835E+0
5.09129700E+2	6.27902900E-1	3.56497866E+0
5.07759190E+2	6.27743500E-1	3.56500111E+0
5.05799471E+2	6.27840700E-1	3.56500553E+0
5.03691607E+2	6.27852300E-1	3.56498596E+0
5.02389451E+2	6.27840700E-1	3.56495473E+0
5.00950946E+2	6.27712400E-1	3.56497516E+0
5.00053457E+2	6.27751300E-1	3.56491202E+0
4.98594239E+2	6.27774600E-1	3.56491117E+0
4.97514348E+2	6.27836800E-1	3.56492409E+0
4.95275943E+2	6.27856200E-1	3.56492076E+0
4.94958982E+2	6.27856200E-1	3.56492464E+0
4.93097743E+2	6.27692900E-1	3.56493031E+0
4.93013538E+2	6.27801800E-1	3.56491533E+0
4.91688846E+2	6.27766800E-1	3.56494078E+0
4.90805768E+2	6.27731800E-1	3.56493859E+0
4.89212182E+2	6.27755200E-1	3.56492714E+0
4.88071636E+2	6.27720200E-1	3.56488944E+0
4.86314595E+2	6.27727900E-1	3.56487294E+0
4.82625754E+2	6.27898900E-1	3.56491623E+0
4.82490711E+2	6.27852300E-1	3.56495013E+0
4.81710093E+2	6.27840700E-1	3.56490849E+0
4.81095617E+2	6.27867900E-1	3.56490201E+0
4.79884421E+2	6.27731800E-1	3.56490438E+0
4.79841778E+2	6.27844500E-1	3.56492235E+0
4.79769101E+2	6.27941800E-1	3.56489499E+0
4.78994553E+2	6.27731800E-1	3.56485894E+0
4.79011934E+2	6.27770700E-1	3.56482795E+0
4.78871893E+2	6.27755200E-1	3.56485474E+0
4.78391220E+2	6.27836800E-1	3.56487509E+0
4.78406530E+2	6.27875600E-1	3.56485313E+0
4.77845376E+2	6.27739600E-1	3.56479808E+0
4.77704164E+2	6.27696800E-1	3.56480300E+0
4.77968441E+2	6.27762900E-1	3.56484459E+0
4.78185437E+2	6.27735700E-1	3.56482818E+0
4.77467896E+2	6.27716300E-1	3.56484226E+0
4.77494163E+2	6.27879500E-1	3.56485282E+0
4.77869532E+2	6.27821200E-1	3.56485765E+0
4.76972190E+2	6.27871800E-1	3.56485697E+0
4.76564675E+2	6.27786200E-1	3.56483904E+0
4.76728627E+2	6.27759000E-1	3.56488126E+0
4.76521717E+2	6.27844500E-1	3.56483001E+0
4.76540179E+2	6.27883400E-1	3.56484996E+0
4.77214087E+2	6.27805700E-1	3.56491619E+0
4.77707198E+2	6.27867900E-1	3.56488971E+0
4.77707423E+2	6.27863900E-1	3.56486092E+0
4.77387671E+2	6.27712400E-1	3.56484830E+0
4.77128707E+2	6.27918400E-1	3.56483516E+0
4.77737143E+2	6.27712400E-1	3.56484039E+0
4.78137407E+2	6.27712400E-1	3.56484437E+0
4.78017585E+2	6.27743500E-1	3.56479330E+0
4.77162212E+2	6.27731800E-1	3.56478140E+0
4.76762276E+2	6.27856200E-1	3.56481888E+0
4.77840952E+2	6.27875600E-1	3.56482523E+0
4.77479187E+2	6.27720200E-1	3.56478326E+0
4.77340136E+2	6.27852300E-1	3.56477157E+0
4.77488463E+2	6.27716300E-1	3.56479214E+0
4.77584960E+2	6.27743500E-1	3.56479800E+0
4.77919431E+2	6.27724100E-1	3.56479277E+0
4.77854440E+2	6.27871800E-1	3.56473436E+0
4.78000965E+2	6.27801800E-1	3.56473137E+0
4.77457552E+2	6.27774600E-1	3.56468356E+0
4.77548736E+2	6.27712400E-1	3.56469711E+0
4.77674233E+2	6.27619100E-1	3.56472466E+0
4.77413378E+2	6.27747300E-1	3.56470896E+0
4.76981007E+2	6.27696800E-1	3.56469430E+0
4.77365422E+2	6.27832900E-1	3.56472971E+0
4.77264692E+2	6.27755200E-1	3.56471433E+0
4.78179101E+2	6.27654100E-1	3.56473481E+0
4.78199319E+2	6.27712400E-1	3.56472238E+0
4.78300004E+2	6.27844500E-1	3.56472703E+0
4.78683158E+2	6.27790100E-1	3.56469980E+0
4.78625746E+2	6.27724100E-1	3.56474416E+0
4.78294877E+2	6.27875600E-1	3.56475659E+0
4.78416471E+2	6.27727900E-1	3.56471151E+0
4.78042323E+2	6.27871800E-1	3.56474054E+0
4.78109416E+2	6.27704600E-1	3.56472846E+0
4.78217171E+2	6.27852300E-1	3.56476111E+0
4.77566904E+2	6.27910600E-1	3.56474881E+0
4.77618057E+2	6.27727900E-1	3.56479661E+0
4.78219693E+2	6.27809600E-1	3.56477993E+0
4.78435368E+2	6.27739600E-1	3.56480229E+0
4.77908301E+2	6.27677400E-1	3.56474693E+0
4.77986067E+2	6.27860100E-1	3.56471670E+0
4.77914965E+2	6.27898900E-1	3.56470843E+0
4.77005690E+2	6.27708500E-1	3.56471988E+0
4.76879067E+2	6.27727900E-1	3.56466058E+0
4.76819719E+2	6.27696800E-1	3.56466925E+0
4.76916262E+2	6.27685200E-1	3.56468312E+0
4.76465519E+2	6.27875600E-1	3.56469899E+0
4.76655858E+2	6.27681300E-1	3.56468625E+0
4.76323857E+2	6.27786200E-1	3.56469586E+0
4.75984336E+2	6.27731800E-1	3.56469765E+0
4.76412474E+2	6.27642400E-1	3.56465065E+0
4.76605425E+2	6.27700800E-1	3.56470307E+0
4.77109752E+2	6.27875600E-1	3.56467995E+0
4.77607821E+2	6.27735700E-1	3.56467771E+0
4.76707681E+2	6.27805700E-1	3.56464904E+0
4.76383435E+2	6.27832900E-1	3.56459408E+0
4.76229885E+2	6.27794000E-1	3.56460748E+0
4.76718227E+2	6.27821200E-1	3.56463952E+0
4.76865203E+2	6.27848400E-1	3.56458975E+0
4.76441613E+2	6.27766800E-1	3.56467248E+0
4.76475835E+2	6.27840700E-1	3.56466086E+0
4.76875410E+2	6.27708500E-1	3.56461815E+0
4.77241721E+2	6.27669600E-1	3.56465741E+0
4.76763330E+2	6.27871800E-1	3.56465460E+0
4.76270486E+2	6.27840700E-1	3.56465965E+0
4.76312678E+2	6.27669600E-1	3.56462553E+0
4.76668949E+2	6.27712400E-1	3.56463917E+0
4.76550657E+2	6.27685200E-1	3.56467570E+0
4.76381212E+2	6.27731800E-1	3.56466323E+0
4.76302006E+2	6.27747300E-1	3.56469788E+0
4.76961594E+2	6.27673500E-1	3.56462870E+0
4.77880100E+2	6.27727900E-1	3.56465017E+0
4.78006272E+2	6.27731800E-1	3.56465424E+0
4.78031038E+2	6.27681300E-1	3.56462830E+0
4.78734484E+2	6.27700800E-1	3.56464212E+0
4.78856828E+2	6.27856200E-1	3.56464570E+0
4.78127223E+2	6.27712400E-1	3.56465236E+0
4.77655459E+2	6.27716300E-1	3.56466287E+0
4.78393038E+2	6.27704600E-1	3.56467476E+0
4.78617058E+2	6.27906800E-1	3.56468890E+0
4.78814421E+2	6.27910600E-1	3.56469359E+0
4.78891601E+2	6.27700800E-1	3.56466658E+0
4.78447028E+2	6.27681300E-1	3.56465638E+0
4.78726344E+2	6.27685200E-1	3.56471063E+0
4.77929468E+2	6.27692900E-1	3.56468116E+0
4.77146275E+2	6.27696800E-1	3.56469900E+0
4.77403617E+2	6.27762900E-1	3.56467297E+0
4.77806088E+2	6.27669600E-1	3.56464994E+0
4.78041591E+2	6.27727900E-1	3.56465432E+0
4.78058792E+2	6.27856200E-1	3.56469582E+0
4.78124400E+2	6.27685200E-1	3.56465074E+0
4.78443995E+2	6.27708500E-1	3.56466488E+0
4.78659645E+2	6.27661800E-1	3.56463254E+0
4.78084892E+2	6.27704600E-1	3.56461703E+0
4.77999202E+2	6.27743500E-1	3.56461984E+0
4.77087360E+2	6.27681300E-1	3.56467342E+0
4.76674442E+2	6.27809600E-1	3.56467887E+0
4.76915979E+2	6.27883400E-1	3.56462065E+0
4.77232500E+2	6.27848400E-1	3.56466309E+0
4.76383829E+2	6.27724100E-1	3.56467919E+0
4.76404093E+2	6.27762900E-1	3.56466912E+0
4.76161115E+2	6.27829000E-1	3.56466756E+0
4.76574438E+2	6.27832900E-1	3.56466407E+0
4.77085340E+2	6.27704600E-1	3.56466210E+0
4.76862265E+2	6.27673500E-1	3.56464842E+0
4.77605427E+2	6.27759000E-1	3.56466528E+0
4.76854119E+2	6.27751300E-1	3.56463590E+0
4.76816925E+2	6.27712400E-1	3.56465713E+0
4.77420902E+2	6.27887300E-1	3.56461058E+0
4.77611150E+2	6.27681300E-1	3.56460884E+0
4.77533024E+2	6.27751300E-1	3.56460410E+0
4.77272215E+2	6.27856200E-1	3.56462538E+0
4.77546983E+2	6.27825100E-1	3.56462418E+0
4.77607575E+2	6.27825100E-1	3.56463258E+0
4.78028356E+2	6.27712400E-1	3.56467368E+0
4.78046278E+2	6.27770700E-1	3.56465347E+0
4.77003310E+2	6.27875600E-1	3.56467891E+0
4.77012722E+2	6.27727900E-1	3.56466165E+0
4.77122773E+2	6.27774600E-1	3.56464542E+0
4.76835712E+2	6.27887300E-1	3.56464466E+0
4.76328817E+2	6.27739600E-1	3.56463509E+0
4.76105266E+2	6.27720200E-1	3.56462024E+0
4.76470768E+2	6.27891200E-1	3.56457516E+0
4.76525929E+2	6.27685200E-1	3.56458920E+0
4.76920070E+2	6.27704600E-1	3.56456591E+0
4.76542905E+2	6.27836800E-1	3.56457916E+0
4.76658810E+2	6.27790100E-1	3.56458115E+0
4.77006166E+2	6.27712400E-1	3.56460584E+0
4.78117864E+2	6.27844500E-1	3.56463249E+0
4.79626556E+2	6.27813500E-1	3.56461657E+0
4.80877107E+2	6.27860100E-1	3.56464631E+0
4.81528545E+2	6.27727900E-1	3.56466272E+0
4.82185432E+2	6.27825100E-1	3.56466549E+0
4.83458633E+2	6.27774600E-1	3.56465516E+0
4.84520332E+2	6.27727900E-1	3.56466643E+0
4.86024900E+2	6.27720200E-1	3.56474321E+0
4.86556935E+2	6.27739600E-1	3.56474871E+0
4.87514031E+2	6.27692900E-1	3.56472935E+0
4.88937541E+2	6.27743500E-1	3.56472081E+0
4.90086642E+2	6.27778500E-1	3.56474747E+0
4.92870394E+2	6.27817300E-1	3.56475467E+0
4.93092703E+2	6.27762900E-1	3.56477528E+0
4.94452541E+2	6.27918400E-1	3.56477850E+0
4.96030519E+2	6.27716300E-1	3.56480037E+0
4.96811914E+2	6.27727900E-1	3.56477394E+0
4.98054450E+2	6.27906800E-1	3.56473155E+0
4.98908790E+2	6.27887300E-1	3.56477698E+0
5.00416054E+2	6.27937800E-1	3.56476553E+0
5.02007747E+2	6.27898900E-1	3.56476513E+0
5.03355022E+2	6.27817300E-1	3.56477314E+0
5.05023843E+2	6.27883400E-1	3.56473029E+0
5.07693476E+2	6.27700800E-1	3.56471778E+0
5.08350318E+2	6.27895100E-1	3.56469023E+0
5.10017210E+2	6.27770700E-1	3.56468893E+0
5.11516413E+2	6.27801800E-1	3.56468272E+0
5.12814606E+2	6.27724100E-1	3.56469640E+0
5.14000270E+2	6.27902900E-1	3.56468643E+0
5.15499429E+2	6.27766800E-1	3.56469943E+0
5.17182880E+2	6.27895100E-1	3.56468275E+0
5.19043848E+2	6.27871800E-1	3.56466710E+0
5.20558856E+2	6.27704600E-1	3.56464349E+0
5.21820936E+2	6.27755200E-1	3.56464081E+0
5.23922675E+2	6.27755200E-1	3.56464197E+0
5.25185430E+2	6.27836800E-1	3.56465172E+0
5.26458136E+2	6.27871800E-1	3.56466361E+0
5.27530644E+2	6.27813500E-1	3.56468356E+0
5.28247253E+2	6.27844500E-1	3.56466334E+0
5.30012219E+2	6.27887300E-1	3.56464183E+0
5.32363917E+2	6.27743500E-1	3.56460807E+0
5.33992895E+2	6.27883400E-1	3.56460125E+0
5.35678835E+2	6.27685200E-1	3.56458782E+0
5.37626080E+2	6.27704600E-1	3.56459189E+0
5.38671756E+2	6.27762900E-1	3.56455084E+0
5.39519088E+2	6.27739600E-1	3.56457557E+0
5.41795947E+2	6.27704600E-1	3.56457758E+0
5.43983783E+2	6.27852300E-1	3.56455799E+0
5.45193810E+2	6.27673500E-1	3.56457445E+0
5.46930092E+2	6.27817300E-1	3.56453778E+0
5.47815142E+2	6.27840700E-1	3.56456014E+0
5.49711910E+2	6.27735700E-1	3.56452785E+0
5.51604894E+2	6.27696800E-1	3.56454104E+0
5.53519584E+2	6.27848400E-1	3.56453380E+0
5.54619378E+2	6.27727900E-1	3.56448568E+0
5.56382634E+2	6.27720200E-1	3.56448550E+0
5.58565473E+2	6.27790100E-1	3.56448769E+0
5.60512088E+2	6.27700800E-1	3.56446721E+0
5.62431686E+2	6.27829000E-1	3.56449154E+0
5.63980520E+2	6.27801800E-1	3.56449766E+0
5.64260394E+2	6.27794000E-1	3.56445992E+0
5.65954485E+2	6.27829000E-1	3.56449118E+0
5.67304823E+2	6.27813500E-1	3.56451260E+0
5.69475324E+2	6.27825100E-1	3.56452476E+0
5.71446525E+2	6.27743500E-1	3.56451752E+0
5.73251793E+2	6.27661800E-1	3.56458491E+0
5.74702501E+2	6.27700800E-1	3.56454399E+0
5.76577453E+2	6.27910600E-1	3.56459336E+0
5.77827397E+2	6.27817300E-1	3.56458205E+0
5.80168243E+2	6.27735700E-1	3.56460486E+0
5.81862198E+2	6.27871800E-1	3.56464251E+0
5.82849285E+2	6.27774600E-1	3.56468531E+0
5.84671979E+2	6.27910600E-1	3.56470319E+0
5.87158134E+2	6.27844500E-1	3.56471688E+0
5.88695560E+2	6.27825100E-1	3.56469501E+0
5.90350367E+2	6.27926200E-1	3.56478141E+0
5.92697967E+2	6.27708500E-1	3.56477859E+0
5.94980365E+2	6.27743500E-1	3.56474300E+0
5.97311664E+2	6.27755200E-1	3.56474921E+0
5.98134348E+2	6.27720200E-1	3.56474420E+0
6.00249372E+2	6.27918400E-1	3.56478154E+0
6.03279255E+2	6.27727900E-1	3.56475605E+0
6.05956991E+2	6.27759000E-1	3.56476401E+0
6.08193999E+2	6.27879500E-1	3.56477457E+0
6.09843421E+2	6.27825100E-1	3.56475024E+0
6.12085427E+2	6.27724100E-1	3.56471920E+0
6.13916992E+2	6.27863900E-1	3.56470887E+0
6.16320293E+2	6.27727900E-1	3.56474416E+0
6.18564506E+2	6.27720200E-1	3.56473597E+0
6.18479372E+2	6.27739600E-1	3.56473548E+0
6.19970616E+2	6.27661800E-1	3.56471768E+0
6.22182633E+2	6.27739600E-1	3.56472448E+0
6.23641266E+2	6.27747300E-1	3.56473226E+0
6.25804426E+2	6.27813500E-1	3.56476021E+0
6.27840244E+2	6.27786200E-1	3.56479996E+0
6.29076207E+2	6.27887300E-1	3.56476723E+0
6.31691010E+2	6.27677400E-1	3.56477429E+0
6.33682857E+2	6.27716300E-1	3.56476893E+0
6.35245237E+2	6.27716300E-1	3.56475529E+0
6.36749575E+2	6.27696800E-1	3.56480587E+0
6.40108172E+2	6.27860100E-1	3.56477425E+0
6.42398721E+2	6.27840700E-1	3.56478592E+0
6.45027754E+2	6.27739600E-1	3.56483793E+0
6.47016516E+2	6.27848400E-1	3.56483547E+0
6.49122264E+2	6.27716300E-1	3.56484401E+0
6.51167944E+2	6.27856200E-1	3.56488649E+0
6.53126986E+2	6.27883400E-1	3.56486087E+0
6.54491958E+2	6.27832900E-1	3.56487268E+0
6.56377604E+2	6.27902900E-1	3.56488524E+0
6.58407342E+2	6.27809600E-1	3.56488014E+0
6.61837356E+2	6.27700800E-1	3.56488696E+0
6.62723051E+2	6.27782300E-1	3.56489736E+0
6.64832459E+2	6.27770700E-1	3.56487602E+0
6.66715447E+2	6.27867900E-1	3.56487066E+0
6.70093633E+2	6.27755200E-1	3.56493559E+0
6.71937311E+2	6.27755200E-1	3.56491873E+0
6.75741968E+2	6.27766800E-1	3.56498501E+0
6.79494932E+2	6.27933900E-1	3.56498487E+0
6.79834948E+2	6.27774600E-1	3.56498881E+0
6.83081852E+2	6.27891200E-1	3.56498662E+0
6.84924906E+2	6.27770700E-1	3.56496014E+0
6.87231575E+2	6.27747300E-1	3.56494100E+0
6.90025325E+2	6.27910600E-1	3.56496220E+0
6.92040655E+2	6.27716300E-1	3.56497349E+0
6.94013252E+2	6.27794000E-1	3.56502150E+0
6.96340635E+2	6.27961200E-1	3.56498157E+0
6.97974297E+2	6.27895100E-1	3.56502803E+0
6.99818470E+2	6.27914500E-1	3.56502284E+0
7.02208128E+2	6.27953300E-1	3.56494861E+0
7.04581621E+2	6.27887300E-1	3.56495554E+0
7.07810219E+2	6.27747300E-1	3.56493572E+0
7.10316863E+2	6.27895100E-1	3.56493161E+0
7.12121636E+2	6.27755200E-1	3.56493339E+0
7.12865114E+2	6.27918400E-1	3.56495245E+0
7.14689727E+2	6.27747300E-1	3.56493076E+0
7.17443524E+2	6.27704600E-1	3.56494225E+0
7.20292210E+2	6.27774600E-1	3.56495947E+0
7.22759274E+2	6.27933900E-1	3.56494873E+0
7.24612723E+2	6.27731800E-1	3.56490732E+0
7.26995086E+2	6.27891200E-1	3.56493590E+0
7.28912928E+2	6.27751300E-1	3.56495714E+0
7.31725456E+2	6.27704600E-1	3.56492602E+0
7.34037258E+2	6.27918400E-1	3.56492087E+0
7.36724785E+2	6.27914500E-1	3.56487562E+0
7.38933515E+2	6.27743500E-1	3.56491072E+0
7.41414717E+2	6.27895100E-1	3.56491502E+0
7.43933024E+2	6.27751300E-1	3.56488599E+0
7.46681565E+2	6.27747300E-1	3.56487123E+0
7.48481250E+2	6.27852300E-1	3.56487240E+0
7.51816453E+2	6.27817300E-1	3.56483984E+0
7.54347445E+2	6.27755200E-1	3.56481337E+0
7.59118342E+2	6.27712400E-1	3.56479485E+0
7.60305584E+2	6.27700800E-1	3.56477393E+0
7.60499345E+2	6.27766800E-1	3.56478095E+0
7.62374094E+2	6.27809600E-1	3.56473922E+0
7.67014452E+2	6.27755200E-1	3.56474830E+0
7.69178874E+2	6.27762900E-1	3.56475228E+0
7.70674098E+2	6.27704600E-1	3.56475496E+0
7.73202131E+2	6.27871800E-1	3.56477263E+0
7.75742817E+2	6.27739600E-1	3.56475863E+0
7.77312852E+2	6.27731800E-1	3.56475908E+0
7.79738263E+2	6.27879500E-1	3.56474615E+0
7.82083837E+2	6.27759000E-1	3.56475139E+0
7.84563058E+2	6.27759000E-1	3.56470009E+0
7.87799536E+2	6.27840700E-1	3.56471798E+0
7.90005295E+2	6.27840700E-1	3.56470126E+0
7.91648637E+2	6.27654100E-1	3.56464589E+0
7.93802567E+2	6.27879500E-1	3.56467009E+0
7.96001886E+2	6.27797900E-1	3.56464106E+0
7.98831345E+2	6.27840700E-1	3.56465117E+0
8.01596096E+2	6.27724100E-1	3.56465882E+0
8.04332474E+2	6.27805700E-1	3.56462836E+0
8.07599651E+2	6.27692900E-1	3.56459326E+0
8.10424336E+2	6.27844500E-1	3.56453881E+0
8.12048902E+2	6.27727900E-1	3.56454998E+0
8.15600720E+2	6.27724100E-1	3.56455592E+0
8.17999608E+2	6.27817300E-1	3.56458343E+0
8.20525525E+2	6.27689100E-1	3.56457421E+0
8.22551211E+2	6.27712400E-1	3.56454175E+0
8.25243788E+2	6.27696800E-1	3.56453392E+0
8.28103372E+2	6.27790100E-1	3.56455574E+0
8.30866457E+2	6.27724100E-1	3.56455557E+0
8.34010265E+2	6.27657900E-1	3.56457600E+0
8.36462874E+2	6.27743500E-1	3.56454175E+0
8.38254769E+2	6.27654100E-1	3.56453110E+0
8.40992458E+2	6.27677400E-1	3.56454237E+0
8.43630631E+2	6.27829000E-1	3.56453996E+0
8.45868921E+2	6.27673500E-1	3.56457341E+0
8.49013360E+2	6.27720200E-1	3.56460547E+0
8.51515906E+2	6.27836800E-1	3.56461822E+0
8.54110313E+2	6.27747300E-1	3.56457869E+0
8.57011593E+2	6.27770700E-1	3.56459510E+0
8.59834163E+2	6.27700800E-1	3.56458931E+0
8.62191851E+2	6.27720200E-1	3.56456416E+0
8.64340279E+2	6.27825100E-1	3.56458611E+0
8.66837557E+2	6.27665800E-1	3.56459828E+0
8.69290752E+2	6.27848400E-1	3.56458951E+0
8.72362424E+2	6.27700800E-1	3.56457771E+0
8.75176213E+2	6.27747300E-1	3.56458799E+0
8.77161193E+2	6.27700800E-1	3.56460731E+0
8.79298327E+2	6.27887300E-1	3.56460315E+0
8.81801936E+2	6.27747300E-1	3.56458284E+0
8.84409818E+2	6.27692900E-1	3.56458893E+0
8.87032278E+2	6.27708500E-1	3.56459639E+0
8.90151005E+2	6.27716300E-1	3.56457761E+0
8.93458225E+2	6.27844500E-1	3.56458660E+0
8.95977388E+2	6.27716300E-1	3.56458821E+0
8.98309048E+2	6.27700800E-1	3.56462752E+0
9.01005548E+2	6.27805700E-1	3.56456997E+0
9.03912665E+2	6.27759000E-1	3.56458419E+0
9.06472489E+2	6.27836800E-1	3.56461518E+0
9.09017949E+2	6.27731800E-1	3.56461650E+0
9.11598487E+2	6.27716300E-1	3.56464385E+0
9.14251026E+2	6.27813500E-1	3.56464626E+0
9.16884518E+2	6.27708500E-1	3.56461151E+0
9.19147915E+2	6.27887300E-1	3.56463468E+0
9.21562720E+2	6.27716300E-1	3.56464282E+0
9.23866372E+2	6.27708500E-1	3.56462560E+0
9.26140261E+2	6.27747300E-1	3.56461934E+0
9.28409511E+2	6.27770700E-1	3.56465471E+0
9.30902016E+2	6.27926200E-1	3.56465507E+0
9.33066709E+2	6.27712400E-1	3.56462569E+0
9.35373829E+2	6.27704600E-1	3.56464680E+0
9.38311432E+2	6.27743500E-1	3.56468754E+0
9.40564844E+2	6.27727900E-1	3.56464412E+0
9.42924693E+2	6.27724100E-1	3.56467068E+0
9.44970373E+2	6.27937800E-1	3.56463709E+0
9.47433025E+2	6.27700800E-1	3.56465485E+0
9.50179630E+2	6.27743500E-1	3.56463902E+0
9.52608780E+2	6.27762900E-1	3.56461044E+0
9.54663781E+2	6.27774600E-1	3.56464814E+0
9.56965452E+2	6.27739600E-1	3.56463763E+0
9.59438956E+2	6.27731800E-1	3.56460239E+0
9.61892331E+2	6.27766800E-1	3.56462650E+0
9.63889469E+2	6.27774600E-1	3.56462234E+0
9.66223607E+2	6.27739600E-1	3.56465954E+0
9.68896590E+2	6.27708500E-1	3.56468094E+0
9.71332178E+2	6.27778500E-1	3.56463786E+0
9.73743653E+2	6.27735700E-1	3.56463321E+0
9.75874438E+2	6.27871800E-1	3.56462145E+0
9.77898098E+2	6.27879500E-1	3.52616084E+0
9.79980341E+2	6.27759000E-1	3.46758461E+0
9.82298583E+2	6.27871800E-1	3.45192704E+0
9.84562339E+2	6.27863900E-1	3.44078943E+0
9.86511656E+2	6.27766800E-1	3.43370940E+0
9.88901958E+2	6.27766800E-1	3.42647353E+0
9.93271786E+2	6.27852300E-1	3.41975349E+0
9.93852934E+2	6.27766800E-1	3.41343383E+0
9.95599485E+2	6.27895100E-1	3.40933041E+0
9.97862206E+2	6.27747300E-1	3.40479763E+0
9.99747402E+2	6.27797900E-1	3.40292494E+0
1.00204421E+3	6.27751300E-1	3.40052950E+0
1.00375622E+3	6.27720200E-1	3.39902317E+0
1.00586521E+3	6.27817300E-1	3.39744985E+0
1.00791643E+3	6.27867900E-1	3.39675178E+0
1.00989159E+3	6.27879500E-1	3.39612705E+0
1.01207393E+3	6.27891200E-1	3.39579138E+0
1.01410953E+3	6.27918400E-1	3.39547495E+0
1.01614422E+3	6.27685200E-1	3.39518177E+0
1.01818134E+3	6.27871800E-1	3.39482280E+0
1.02010183E+3	6.27751300E-1	3.39420478E+0
1.02386066E+3	6.27759000E-1	3.39289714E+0
1.02420342E+3	6.27786200E-1	3.39265091E+0
1.02601387E+3	6.27898900E-1	3.39246493E+0
1.02787029E+3	6.27774600E-1	3.39232786E+0
1.02966957E+3	6.27743500E-1	3.39216320E+0
1.03141148E+3	6.27739600E-1	3.39203651E+0
1.03320615E+3	6.27813500E-1	3.39187570E+0
1.03507128E+3	6.27965000E-1	3.39180616E+0
1.03667797E+3	6.27778500E-1	3.39169705E+0
1.03852421E+3	6.27832900E-1	3.39156682E+0
1.04007169E+3	6.27895100E-1	3.39145556E+0
1.04187844E+3	6.27883400E-1	3.39138155E+0
1.04337850E+3	6.27891200E-1	3.39128335E+0
1.04515864E+3	6.27766800E-1	3.39120916E+0
1.04670324E+3	6.27778500E-1	3.39111256E+0
1.04825369E+3	6.27786200E-1	3.39102688E+0
1.04966333E+3	6.27797900E-1	3.39096799E+0
1.05262279E+3	6.27692900E-1	3.39089697E+0
1.05289972E+3	6.27801800E-1	3.39078321E+0
1.05438397E+3	6.27751300E-1	3.39069077E+0
1.05573237E+3	6.27704600E-1	3.39062964E+0
1.05711142E+3	6.27801800E-1	3.39054959E+0
1.05849465E+3	6.27759000E-1	3.39007158E+0
1.05991388E+3	6.27844500E-1	3.38920228E+0
1.06123702E+3	6.27774600E-1	3.38887091E+0
1.06265076E+3	6.27720200E-1	3.38844067E+0
1.06381008E+3	6.27910600E-1	3.38814695E+0
1.06517956E+3	6.27941800E-1	3.38787318E+0
1.06628202E+3	6.27786200E-1	3.38770360E+0
1.06754918E+3	6.27898900E-1	3.38721298E+0
1.06860791E+3	6.27778500E-1	3.38700481E+0
1.06981415E+3	6.27782300E-1	3.38660793E+0
1.07082065E+3	6.27933900E-1	3.38606857E+0
1.07204504E+3	6.27875600E-1	3.38605175E+0
1.07297296E+3	6.27863900E-1	3.38592685E+0
1.07402403E+3	6.27801800E-1	3.38559499E+0
1.07495617E+3	6.27879500E-1	3.38528012E+0
1.07603222E+3	6.27844500E-1	3.38514158E+0
1.07686161E+3	6.27910600E-1	3.38493522E+0
1.07773680E+3	6.27867900E-1	3.38455365E+0
1.07863892E+3	6.27883400E-1	3.38423287E+0
1.07943589E+3	6.27875600E-1	3.38399188E+0
1.08018554E+3	6.27735700E-1	3.38375996E+0
1.08088133E+3	6.27755200E-1	3.38358887E+0
1.08171744E+3	6.27727900E-1	3.38341612E+0
1.08235505E+3	6.27860100E-1	3.38236816E+0
1.08306170E+3	6.27805700E-1	3.38060952E+0
1.08361056E+3	6.27887300E-1	3.37944816E+0
1.08422223E+3	6.27871800E-1	3.37917448E+0
1.08469909E+3	6.27898900E-1	3.37904591E+0
1.08524273E+3	6.27883400E-1	3.37795100E+0
1.08569549E+3	6.27700800E-1	3.37746937E+0
1.08635011E+3	6.27844500E-1	3.37734098E+0
1.08642045E+3	6.27766800E-1	3.37734371E+0
1.08666838E+3	6.27801800E-1	3.37717136E+0
1.08690807E+3	6.27805700E-1	3.37714207E+0
1.08714110E+3	6.27739600E-1	3.37710781E+0
1.08734377E+3	6.27766800E-1	3.37711193E+0
1.08759787E+3	6.27720200E-1	3.37690917E+0
