# Begin of measurement: 22.11.2018 13:03:12
# R-Sample[Ohm]	I-Coil[A]	U-Magnetometer[V]
# Kei2000	HP E3631A +6V : I	Kei2000
1.09419655E+3	3.87860500E-1	1.98951920E+0
1.09421267E+3	3.87771100E-1	1.98950288E+0
1.09421830E+3	3.87755600E-1	1.98951562E+0
1.09422573E+3	3.87868300E-1	1.98952273E+0
1.09420024E+3	3.87876100E-1	1.98951589E+0
1.09421866E+3	3.87771100E-1	1.98950744E+0
1.09422177E+3	3.87891600E-1	1.98951294E+0
1.09425343E+3	3.87918800E-1	1.98953266E+0
1.09425338E+3	3.87716700E-1	1.98954791E+0
1.09424662E+3	3.87755600E-1	1.98957944E+0
1.09426616E+3	3.87911100E-1	1.98954317E+0
1.09426846E+3	3.87798300E-1	1.98954531E+0
1.09425545E+3	3.87915000E-1	1.98951723E+0
1.09420979E+3	3.87922700E-1	1.98951750E+0
1.09420033E+3	3.87693400E-1	1.98953901E+0
1.09413801E+3	3.87747800E-1	1.98950118E+0
1.09404394E+3	3.87883900E-1	1.98951343E+0
1.09394096E+3	3.87911100E-1	1.98955462E+0
1.09380150E+3	3.87942200E-1	1.98955198E+0
1.09369591E+3	3.87907200E-1	1.98955515E+0
1.09345460E+3	3.87891600E-1	1.98951124E+0
1.09323337E+3	3.87771100E-1	1.98956611E+0
1.09301973E+3	3.87724500E-1	1.98955815E+0
1.09275081E+3	3.87926600E-1	1.98957125E+0
1.09240859E+3	3.87868300E-1	1.98953847E+0
1.09206398E+3	3.87732300E-1	1.98962684E+0
1.09166006E+3	3.87891600E-1	1.98958842E+0
1.09125363E+3	3.87891600E-1	1.98955028E+0
1.09080081E+3	3.87806100E-1	1.98955359E+0
1.09025731E+3	3.87895500E-1	1.98953244E+0
1.08971070E+3	3.87728400E-1	1.98955336E+0
1.08925833E+3	3.87736200E-1	1.98955108E+0
1.08860928E+3	3.87907200E-1	1.98953624E+0
1.08795712E+3	3.87872200E-1	1.98952640E+0
1.08729834E+3	3.87852800E-1	1.98951312E+0
1.08655846E+3	3.87751700E-1	1.98950730E+0
1.08583403E+3	3.87732300E-1	1.98952109E+0
1.08497476E+3	3.87891600E-1	1.98952125E+0
1.08416916E+3	3.87716700E-1	1.98956521E+0
1.08326209E+3	3.87736200E-1	1.98953900E+0
1.08242468E+3	3.87903300E-1	1.98956002E+0
1.08143872E+3	3.87767200E-1	1.98959065E+0
1.08049206E+3	3.87825600E-1	1.98958819E+0
1.07951893E+3	3.87880000E-1	1.98953467E+0
1.07836245E+3	3.87732300E-1	1.98956391E+0
1.07743621E+3	3.87806100E-1	1.98957755E+0
1.07620318E+3	3.87732300E-1	1.98952577E+0
1.07503723E+3	3.87747800E-1	1.98955609E+0
1.07379820E+3	3.87701200E-1	1.98955796E+0
1.07253702E+3	3.87883900E-1	1.98951579E+0
1.07132263E+3	3.87705100E-1	1.98953069E+0
1.07005748E+3	3.87922700E-1	1.98949075E+0
1.06857148E+3	3.87763400E-1	1.98946262E+0
1.06720339E+3	3.87759500E-1	1.98949911E+0
1.06578379E+3	3.87767200E-1	1.98950564E+0
1.06308825E+3	3.87848900E-1	1.98948051E+0
1.06281649E+3	3.87798300E-1	1.98948382E+0
1.06142392E+3	3.87740000E-1	1.98948673E+0
1.05984631E+3	3.87848900E-1	1.98944210E+0
1.05844873E+3	3.87778900E-1	1.98941692E+0
1.05675647E+3	3.87743900E-1	1.98943941E+0
1.05525519E+3	3.87708900E-1	1.98948245E+0
1.05373928E+3	3.87829400E-1	1.98944325E+0
1.05218167E+3	3.87763400E-1	1.98946198E+0
1.05038117E+3	3.87705100E-1	1.98947907E+0
1.04888876E+3	3.87810000E-1	1.98953107E+0
1.04712325E+3	3.87887700E-1	1.98951341E+0
1.04534956E+3	3.87763400E-1	1.98947929E+0
1.04369362E+3	3.87860500E-1	1.98948591E+0
1.04173367E+3	3.87887700E-1	1.98950406E+0
1.03970150E+3	3.87845000E-1	1.98945796E+0
1.03787974E+3	3.87736200E-1	1.98947012E+0
1.03414321E+3	3.87740000E-1	1.98951225E+0
1.03203768E+3	3.87677900E-1	1.98947535E+0
1.02997016E+3	3.87747800E-1	1.98942496E+0
1.02962127E+3	3.87693400E-1	1.98944682E+0
1.02806105E+3	3.87775000E-1	1.98946207E+0
1.02641352E+3	3.87887700E-1	1.98948533E+0
1.02490679E+3	3.87736200E-1	1.98946856E+0
1.02319266E+3	3.87841100E-1	1.98948233E+0
1.02131575E+3	3.87724500E-1	1.98947410E+0
1.01878078E+3	3.87751700E-1	1.98944352E+0
1.01582931E+3	3.87825600E-1	1.98947845E+0
1.01317681E+3	3.87759500E-1	1.98950139E+0
1.01106678E+3	3.87685600E-1	1.98948520E+0
1.00904389E+3	3.87740000E-1	1.98951713E+0
1.00647199E+3	3.87876100E-1	1.98949231E+0
1.00478398E+3	3.87693400E-1	1.98949065E+0
1.00242538E+3	3.87751700E-1	1.98947688E+0
9.99835372E+2	3.87743900E-1	1.98952160E+0
9.97687447E+2	3.87825600E-1	1.98950702E+0
9.95831564E+2	3.87736200E-1	1.98947402E+0
9.93709917E+2	3.87907200E-1	1.98949548E+0
9.90642519E+2	3.87712800E-1	1.98954427E+0
9.88486245E+2	3.87911100E-1	1.98953032E+0
9.86578353E+2	3.87845000E-1	1.98953077E+0
9.82426406E+2	3.87728400E-1	1.98955250E+0
9.82055680E+2	3.87887700E-1	1.98955943E+0
9.76938910E+2	3.87755600E-1	1.98955702E+0
9.76113028E+2	3.87872200E-1	1.98958237E+0
9.73879844E+2	3.87743900E-1	1.98955675E+0
9.71136029E+2	3.87817800E-1	1.98955680E+0
9.68878034E+2	3.87887700E-1	1.98958989E+0
9.65151179E+2	3.87712800E-1	1.98958059E+0
9.65009826E+2	3.87806100E-1	1.98957249E+0
9.62487234E+2	3.87724500E-1	1.98956896E+0
9.59480177E+2	3.87860500E-1	1.98958144E+0
9.56721817E+2	3.87736200E-1	1.98958756E+0
9.54530871E+2	3.87880000E-1	1.98957611E+0
9.52209836E+2	3.87701200E-1	1.98954329E+0
9.49727866E+2	3.87728400E-1	1.98958175E+0
9.47739679E+2	3.87911100E-1	1.98959292E+0
9.45614263E+2	3.87662300E-1	1.98961453E+0
9.39740146E+2	3.87790600E-1	1.98956655E+0
9.39122614E+2	3.87724500E-1	1.98959633E+0
9.36089801E+2	3.87689500E-1	1.98962003E+0
9.32304233E+2	3.87755600E-1	1.98958985E+0
9.29347654E+2	3.87712800E-1	1.98962460E+0
9.26415481E+2	3.87845000E-1	1.98959879E+0
9.23928738E+2	3.87848900E-1	1.98956458E+0
9.21435016E+2	3.87724500E-1	1.98960894E+0
9.18657248E+2	3.87852800E-1	1.98959758E+0
9.16100665E+2	3.87728400E-1	1.98958059E+0
9.13475727E+2	3.87798300E-1	1.98960862E+0
9.10398695E+2	3.87705100E-1	1.98959999E+0
9.08630934E+2	3.87864400E-1	1.98960129E+0
9.05517203E+2	3.87763400E-1	1.98964449E+0
9.02095112E+2	3.87880000E-1	1.98964936E+0
8.99667672E+2	3.87887700E-1	1.98966220E+0
8.96391611E+2	3.87837200E-1	1.98966551E+0
8.94225251E+2	3.87887700E-1	1.98968818E+0
8.91368457E+2	3.87670100E-1	1.98969502E+0
8.88326008E+2	3.87716700E-1	1.98968183E+0
8.85845344E+2	3.87856600E-1	1.98967624E+0
8.83166280E+2	3.87708900E-1	1.98964713E+0
8.81220193E+2	3.87740000E-1	1.98966855E+0
8.78973546E+2	3.87732300E-1	1.98969475E+0
8.77948319E+2	3.87654500E-1	1.98969435E+0
8.75460901E+2	3.87693400E-1	1.98965513E+0
8.72950292E+2	3.87705100E-1	1.98966425E+0
8.69783607E+2	3.87813900E-1	1.98968464E+0
8.65981322E+2	3.87806100E-1	1.98970588E+0
8.62496028E+2	3.87829400E-1	1.98972547E+0
8.59378560E+2	3.87802200E-1	1.98975050E+0
8.56462238E+2	3.87903300E-1	1.98977284E+0
8.54234774E+2	3.87646800E-1	1.98978884E+0
8.50913188E+2	3.87845000E-1	1.98980029E+0
8.48203820E+2	3.87782800E-1	1.98979627E+0
8.46292147E+2	3.87732300E-1	1.98978822E+0
8.43600669E+2	3.87864400E-1	1.98980553E+0
8.40945022E+2	3.87720600E-1	1.98984166E+0
8.36456144E+2	3.87759500E-1	1.98985472E+0
8.36194253E+2	3.87724500E-1	1.98987251E+0
8.29522130E+2	3.87810000E-1	1.98982717E+0
8.26876660E+2	3.87790600E-1	1.98987627E+0
8.26449378E+2	3.87759500E-1	1.98988432E+0
8.23870319E+2	3.87689500E-1	1.98990046E+0
8.20610706E+2	3.87829400E-1	1.98996795E+0
8.19734887E+2	3.87868300E-1	1.98992528E+0
8.17508278E+2	3.87747800E-1	1.98994219E+0
8.14457724E+2	3.87829400E-1	1.98999192E+0
8.10670310E+2	3.87743900E-1	1.98998574E+0
8.06953727E+2	3.87732300E-1	1.99005851E+0
8.04501252E+2	3.87856600E-1	1.99010131E+0
8.03156677E+2	3.87806100E-1	1.99016101E+0
8.01409270E+2	3.87685600E-1	1.99014361E+0
7.99449010E+2	3.87845000E-1	1.99020546E+0
7.96854152E+2	3.87716700E-1	1.99021525E+0
7.94752860E+2	3.87759500E-1	1.99022089E+0
7.94014875E+2	3.87778900E-1	1.99027612E+0
7.90126325E+2	3.87705100E-1	1.99026686E+0
7.87024180E+2	3.87848900E-1	1.99036148E+0
7.80013624E+2	3.87759500E-1	1.99042552E+0
7.78045618E+2	3.87712800E-1	1.99051103E+0
7.77366576E+2	3.87736200E-1	1.99054398E+0
7.73169619E+2	3.87841100E-1	1.99063709E+0
7.70211463E+2	3.87837200E-1	1.99073659E+0
7.67772675E+2	3.87837200E-1	1.99080220E+0
7.65898982E+2	3.87720600E-1	1.99088877E+0
7.63469510E+2	3.87712800E-1	1.99096734E+0
7.60158098E+2	3.87868300E-1	1.99107700E+0
7.56592090E+2	3.87697300E-1	1.99119064E+0
7.55735362E+2	3.87833300E-1	1.99129577E+0
7.52572186E+2	3.87876100E-1	1.99140735E+0
7.49713544E+2	3.87841100E-1	1.99158658E+0
7.47004894E+2	3.87810000E-1	1.99173398E+0
7.44870362E+2	3.87821700E-1	1.99184882E+0
7.41293863E+2	3.87736200E-1	1.99209147E+0
7.40274625E+2	3.87891600E-1	1.99232969E+0
7.35964689E+2	3.87716700E-1	1.99248701E+0
7.33228978E+2	3.87712800E-1	1.99270766E+0
7.32845554E+2	3.87763400E-1	1.99306407E+0
7.30620070E+2	3.87845000E-1	1.99345501E+0
7.27010346E+2	3.87829400E-1	1.99399750E+0
7.24936255E+2	3.87868300E-1	1.99464249E+0
7.22879720E+2	3.87841100E-1	1.99553599E+0
7.20857046E+2	3.87771100E-1	1.99655944E+0
7.19242159E+2	3.87880000E-1	1.99806711E+0
7.16935981E+2	3.87658400E-1	2.00023610E+0
7.14184418E+2	3.87841100E-1	2.00406968E+0
7.13198905E+2	3.87899400E-1	2.00918166E+0
7.11762574E+2	3.87763400E-1	2.01435455E+0
7.10351534E+2	3.87775000E-1	2.02052669E+0
7.08006766E+2	3.87736200E-1	2.03510351E+0
7.05921277E+2	3.87798300E-1	2.06078437E+0
7.03599159E+2	3.87876100E-1	2.08594039E+0
6.99909184E+2	3.87825600E-1	2.12752548E+0
6.97233630E+2	3.87778900E-1	2.18348552E+0
6.93075869E+2	3.87883900E-1	2.21338517E+0
6.90235920E+2	3.87825600E-1	2.21459658E+0
6.87769662E+2	3.87771100E-1	2.21462381E+0
6.86191519E+2	3.87697300E-1	2.21459962E+0
6.82742316E+2	3.87708900E-1	2.21460777E+0
6.80546325E+2	3.87708900E-1	2.21462886E+0
6.78884426E+2	3.87705100E-1	2.21463619E+0
6.75329619E+2	3.87747800E-1	2.21460556E+0
6.73603467E+2	3.87697300E-1	2.21464209E+0
6.71943280E+2	3.87852800E-1	2.21466884E+0
6.69515927E+2	3.87833300E-1	2.21462528E+0
6.68066747E+2	3.87903300E-1	2.21463615E+0
6.65477468E+2	3.87868300E-1	2.21466919E+0
6.63007878E+2	3.87817800E-1	2.21467371E+0
6.61036177E+2	3.87786700E-1	2.21469164E+0
6.59787889E+2	3.87860500E-1	2.21472187E+0
6.58285665E+2	3.87708900E-1	2.21468842E+0
6.54968262E+2	3.87724500E-1	2.21465872E+0
6.53032449E+2	3.87833300E-1	2.21462138E+0
6.51423640E+2	3.87701200E-1	2.21459379E+0
6.49207115E+2	3.87716700E-1	2.21458744E+0
6.44973184E+2	3.87697300E-1	2.21462129E+0
6.42570057E+2	3.87837200E-1	2.21458225E+0
6.41576799E+2	3.87705100E-1	2.21460260E+0
6.38301273E+2	3.87806100E-1	2.21458569E+0
6.36359607E+2	3.87860500E-1	2.21462411E+0
6.34794882E+2	3.87705100E-1	2.21462590E+0
6.32390134E+2	3.87708900E-1	2.21466337E+0
6.29986872E+2	3.87868300E-1	2.21466968E+0
6.28093297E+2	3.87848900E-1	2.21465436E+0
6.26076761E+2	3.87848900E-1	2.21463194E+0
6.23979338E+2	3.87891600E-1	2.21459259E+0
6.22277137E+2	3.87740000E-1	2.21464572E+0
6.20975202E+2	3.87883900E-1	2.21464791E+0
6.20386398E+2	3.87848900E-1	2.21459988E+0
6.18445317E+2	3.87790600E-1	2.21463887E+0
6.16997397E+2	3.87883900E-1	2.21463310E+0
6.14315672E+2	3.87883900E-1	2.21464387E+0
6.10723993E+2	3.87674000E-1	2.21463113E+0
6.08067620E+2	3.87728400E-1	2.21463399E+0
6.07658168E+2	3.87689500E-1	2.21465926E+0
6.06278602E+2	3.87747800E-1	2.21461096E+0
6.01428127E+2	3.87732300E-1	2.21459343E+0
6.01299839E+2	3.87712800E-1	2.21459786E+0
6.00210353E+2	3.87732300E-1	2.21461691E+0
5.97130748E+2	3.87802200E-1	2.21462339E+0
5.96071072E+2	3.87681700E-1	2.21461682E+0
5.94704475E+2	3.87883900E-1	2.21462938E+0
5.93272315E+2	3.87841100E-1	2.21464146E+0
5.90844961E+2	3.87728400E-1	2.21463560E+0
5.87685880E+2	3.87755600E-1	2.21464025E+0
5.86194642E+2	3.87705100E-1	2.21464629E+0
5.83836408E+2	3.87775000E-1	2.21465335E+0
5.81848361E+2	3.87720600E-1	2.21458896E+0
5.80000130E+2	3.87716700E-1	2.21458118E+0
5.78907627E+2	3.87810000E-1	2.21462737E+0
5.78696349E+2	3.87767200E-1	2.21463658E+0
5.76072892E+2	3.87778900E-1	2.21464759E+0
5.74676846E+2	3.87876100E-1	2.21459616E+0
5.73837769E+2	3.87708900E-1	2.21461405E+0
5.71625745E+2	3.87670100E-1	2.21459938E+0
5.69976724E+2	3.87868300E-1	2.21460898E+0
5.68353010E+2	3.87728400E-1	2.21464315E+0
5.66258918E+2	3.87732300E-1	2.21461793E+0
5.63403200E+2	3.87747800E-1	2.21463935E+0
5.62746221E+2	3.87716700E-1	2.21457437E+0
5.62141747E+2	3.87778900E-1	2.21457267E+0
5.60777083E+2	3.87759500E-1	2.21460129E+0
5.57455209E+2	3.87810000E-1	2.21459521E+0
5.55469323E+2	3.87848900E-1	2.21457111E+0
5.54251684E+2	3.87771100E-1	2.21460724E+0
5.52907962E+2	3.87837200E-1	2.21463908E+0
5.51452387E+2	3.87716700E-1	2.21464592E+0
5.49376578E+2	3.87755600E-1	2.21461937E+0
5.47950565E+2	3.87782800E-1	2.21462151E+0
5.46128699E+2	3.87860500E-1	2.21463855E+0
5.44476977E+2	3.87860500E-1	2.21464539E+0
5.41530977E+2	3.87693400E-1	2.21458462E+0
5.40219316E+2	3.87763400E-1	2.21458413E+0
5.37906698E+2	3.87806100E-1	2.21463135E+0
5.36728235E+2	3.87642900E-1	2.21463345E+0
5.35287701E+2	3.87860500E-1	2.21457751E+0
5.33448161E+2	3.87841100E-1	2.21459620E+0
5.32006309E+2	3.87751700E-1	2.21460685E+0
5.30241023E+2	3.87880000E-1	2.21459808E+0
5.29961301E+2	3.87732300E-1	2.21456414E+0
5.28995872E+2	3.87891600E-1	2.21457407E+0
5.26748952E+2	3.87880000E-1	2.21458002E+0
5.25481871E+2	3.87755600E-1	2.21458347E+0
5.23213508E+2	3.87887700E-1	2.21454952E+0
5.22395334E+2	3.87720600E-1	2.21460453E+0
5.20467762E+2	3.87778900E-1	2.21456580E+0
5.18786321E+2	3.87720600E-1	2.21456585E+0
5.17422698E+2	3.87845000E-1	2.21457886E+0
5.16110272E+2	3.87693400E-1	2.21456871E+0
5.15252418E+2	3.87775000E-1	2.21459335E+0
5.13629245E+2	3.87728400E-1	2.21454094E+0
5.11678799E+2	3.87825600E-1	2.21456450E+0
5.09983894E+2	3.87825600E-1	2.21455981E+0
5.08562497E+2	3.87778900E-1	2.21454863E+0
5.07208735E+2	3.87837200E-1	2.21454635E+0
5.05945527E+2	3.87825600E-1	2.21456321E+0
5.04684074E+2	3.87736200E-1	2.21453758E+0
5.03365705E+2	3.87740000E-1	2.21452229E+0
5.02284894E+2	3.87852800E-1	2.21446657E+0
5.01001947E+2	3.87732300E-1	2.21444753E+0
4.99252197E+2	3.87790600E-1	2.21445289E+0
4.97972237E+2	3.87860500E-1	2.21443809E+0
4.96838308E+2	3.87724500E-1	2.21443854E+0
4.95719194E+2	3.87736200E-1	2.21444949E+0
4.94124345E+2	3.87880000E-1	2.21442490E+0
4.93377758E+2	3.87848900E-1	2.21443246E+0
4.91864431E+2	3.87677900E-1	2.21444668E+0
4.90503825E+2	3.87732300E-1	2.21440182E+0
4.88349757E+2	3.87887700E-1	2.21441792E+0
4.86801018E+2	3.87685600E-1	2.21444046E+0
4.85866749E+2	3.87720600E-1	2.21442253E+0
4.84755696E+2	3.87732300E-1	2.21439753E+0
4.83732089E+2	3.87810000E-1	2.21443125E+0
4.83115540E+2	3.87934400E-1	2.21441627E+0
4.82184510E+2	3.87880000E-1	2.21440674E+0
4.81243127E+2	3.87891600E-1	2.21444314E+0
4.80780496E+2	3.87782800E-1	2.21443040E+0
4.80509059E+2	3.87677900E-1	2.21443815E+0
4.80202770E+2	3.87751700E-1	2.21445007E+0
4.80121402E+2	3.87743900E-1	2.21445221E+0
4.80238574E+2	3.87883900E-1	2.21443643E+0
4.80056130E+2	3.87868300E-1	2.21446433E+0
4.79733945E+2	3.87907200E-1	2.21448584E+0
4.79596875E+2	3.87813900E-1	2.21448133E+0
4.79346107E+2	3.87743900E-1	2.21450047E+0
4.79356104E+2	3.87693400E-1	2.21451366E+0
4.79129921E+2	3.87821700E-1	2.21444998E+0
4.78923777E+2	3.87934400E-1	2.21447645E+0
4.78694972E+2	3.87693400E-1	2.21448987E+0
4.78777646E+2	3.87860500E-1	2.21443084E+0
4.78828574E+2	3.87743900E-1	2.21444703E+0
4.78544755E+2	3.87740000E-1	2.21445074E+0
4.78256252E+2	3.87728400E-1	2.21447663E+0
4.77731255E+2	3.87751700E-1	2.21447726E+0
4.78279667E+2	3.87868300E-1	2.21443549E+0
4.78505025E+2	3.87883900E-1	2.21448115E+0
4.77573556E+2	3.87864400E-1	2.21448289E+0
4.77093454E+2	3.87720600E-1	2.21449116E+0
4.77592468E+2	3.87786700E-1	2.21445016E+0
4.77686354E+2	3.87899400E-1	2.21448607E+0
4.77941851E+2	3.87689500E-1	2.21445713E+0
4.78084053E+2	3.87911100E-1	2.21449421E+0
4.77971599E+2	3.87763400E-1	2.21451045E+0
4.77890405E+2	3.87915000E-1	2.21452655E+0
4.77625948E+2	3.87934400E-1	2.21455114E+0
4.77121575E+2	3.87724500E-1	2.21452547E+0
4.77230500E+2	3.87798300E-1	2.21450763E+0
4.76894627E+2	3.87751700E-1	2.21447494E+0
4.77041738E+2	3.87845000E-1	2.21449502E+0
4.77407781E+2	3.87724500E-1	2.21448742E+0
4.77525146E+2	3.87732300E-1	2.21451188E+0
4.77584359E+2	3.87860500E-1	2.21446461E+0
4.77747725E+2	3.87880000E-1	2.21445437E+0
4.77820358E+2	3.87724500E-1	2.21447364E+0
4.77131770E+2	3.87755600E-1	2.21445361E+0
4.76940125E+2	3.87899400E-1	2.21448061E+0
4.76606278E+2	3.87771100E-1	2.21444953E+0
4.77119555E+2	3.87708900E-1	2.21447001E+0
4.77761656E+2	3.87697300E-1	2.21443625E+0
4.78214831E+2	3.87778900E-1	2.21448128E+0
4.77770797E+2	3.87743900E-1	2.21448486E+0
4.77323251E+2	3.87848900E-1	2.21447189E+0
4.77377196E+2	3.87697300E-1	2.21448159E+0
4.77094232E+2	3.87693400E-1	2.21444949E+0
4.77848563E+2	3.87864400E-1	2.21446397E+0
4.77536692E+2	3.87895500E-1	2.21442789E+0
4.77570959E+2	3.87736200E-1	2.21446532E+0
4.78128243E+2	3.87825600E-1	2.21447779E+0
4.78964032E+2	3.87720600E-1	2.21453418E+0
4.77962580E+2	3.87716700E-1	2.21447650E+0
4.77076627E+2	3.87755600E-1	2.21446711E+0
4.77211940E+2	3.87860500E-1	2.21449479E+0
4.77721840E+2	3.87771100E-1	2.21450270E+0
4.77900283E+2	3.87848900E-1	2.21446988E+0
4.78217200E+2	3.87930500E-1	2.21446040E+0
4.77544552E+2	3.87872200E-1	2.21446948E+0
4.76980739E+2	3.87728400E-1	2.21448057E+0
4.76931252E+2	3.87887700E-1	2.21445548E+0
4.76628610E+2	3.87693400E-1	2.21447632E+0
4.77107407E+2	3.87891600E-1	2.21446657E+0
4.76783240E+2	3.87782800E-1	2.21449881E+0
4.77154012E+2	3.87848900E-1	2.21450333E+0
4.76986368E+2	3.87880000E-1	2.21446849E+0
4.77068681E+2	3.87763400E-1	2.21448844E+0
4.77216558E+2	3.87782800E-1	2.21451424E+0
4.77808829E+2	3.87883900E-1	2.21448830E+0
4.77785954E+2	3.87895500E-1	2.21447493E+0
4.77246097E+2	3.87728400E-1	2.21442766E+0
4.76689489E+2	3.87716700E-1	2.21446339E+0
4.76504174E+2	3.87674000E-1	2.21449443E+0
4.76352308E+2	3.87778900E-1	2.21450038E+0
4.76832501E+2	3.87786700E-1	2.21447936E+0
4.76783779E+2	3.87685600E-1	2.21447967E+0
4.76470555E+2	3.87747800E-1	2.21444882E+0
4.76541702E+2	3.87685600E-1	2.21447627E+0
4.77508076E+2	3.87724500E-1	2.21450990E+0
4.78147312E+2	3.87755600E-1	2.21446679E+0
4.78313515E+2	3.87767200E-1	2.21445975E+0
4.78283931E+2	3.87743900E-1	2.21444966E+0
4.78005154E+2	3.87732300E-1	2.21441692E+0
4.77764202E+2	3.87856600E-1	2.21444925E+0
4.77597549E+2	3.87860500E-1	2.21447474E+0
4.77718182E+2	3.87736200E-1	2.21443673E+0
4.77644064E+2	3.87775000E-1	2.21446629E+0
4.77337865E+2	3.87802200E-1	2.21446115E+0
4.77132036E+2	3.87771100E-1	2.21447966E+0
4.77508211E+2	3.87767200E-1	2.21450099E+0
4.77238485E+2	3.87845000E-1	2.21447649E+0
4.77329489E+2	3.87759500E-1	2.21445730E+0
4.78002137E+2	3.87782800E-1	2.21443231E+0
4.77924478E+2	3.87736200E-1	2.21445355E+0
4.77309742E+2	3.87891600E-1	2.21442663E+0
4.77292361E+2	3.87868300E-1	2.21443937E+0
4.77346261E+2	3.87895500E-1	2.21449362E+0
4.77987028E+2	3.87790600E-1	2.21451772E+0
4.77937226E+2	3.87864400E-1	2.21451041E+0
4.77065683E+2	3.87775000E-1	2.21452918E+0
4.76847921E+2	3.87763400E-1	2.21451764E+0
4.77122555E+2	3.87829400E-1	2.21452752E+0
4.77655416E+2	3.87864400E-1	2.21453208E+0
4.77496610E+2	3.87771100E-1	2.21452537E+0
4.76891956E+2	3.87883900E-1	2.21456451E+0
4.77188114E+2	3.87790600E-1	2.21453029E+0
4.77394438E+2	3.87903300E-1	2.21456087E+0
4.77913131E+2	3.87864400E-1	2.21455479E+0
4.77932809E+2	3.87743900E-1	2.21452935E+0
4.77522817E+2	3.87891600E-1	2.21454554E+0
4.77706356E+2	3.87736200E-1	2.21457545E+0
4.77706131E+2	3.87891600E-1	2.21453082E+0
4.77208917E+2	3.87763400E-1	2.21457018E+0
4.77354542E+2	3.87782800E-1	2.21451705E+0
4.76789064E+2	3.87868300E-1	2.21456087E+0
4.76821981E+2	3.87872200E-1	2.21458815E+0
4.77016327E+2	3.87802200E-1	2.21454093E+0
4.77007550E+2	3.87868300E-1	2.21454017E+0
4.77774940E+2	3.87841100E-1	2.21452438E+0
4.77937451E+2	3.87829400E-1	2.21450752E+0
4.77531286E+2	3.87712800E-1	2.21449527E+0
4.77376521E+2	3.87775000E-1	2.21447506E+0
4.77379402E+2	3.87891600E-1	2.21448217E+0
4.77491255E+2	3.87864400E-1	2.21452058E+0
4.77334584E+2	3.87751700E-1	2.21447940E+0
4.77000685E+2	3.87872200E-1	2.21444590E+0
4.76608120E+2	3.87872200E-1	2.21444545E+0
4.76288367E+2	3.87790600E-1	2.21440529E+0
4.76916346E+2	3.87891600E-1	2.21435454E+0
4.76847676E+2	3.87674000E-1	2.21436652E+0
4.76752709E+2	3.87833300E-1	2.21436388E+0
4.77176151E+2	3.87868300E-1	2.21435087E+0
4.76756107E+2	3.87883900E-1	2.21437354E+0
4.77385977E+2	3.87790600E-1	2.21439215E+0
4.77770347E+2	3.87759500E-1	2.21439031E+0
4.77918268E+2	3.87848900E-1	2.21438772E+0
4.77966630E+2	3.87837200E-1	2.21437739E+0
4.77065368E+2	3.87856600E-1	2.21441495E+0
4.77297179E+2	3.87650600E-1	2.21436930E+0
4.77095937E+2	3.87732300E-1	2.21443508E+0
4.77019522E+2	3.87883900E-1	2.21440418E+0
4.76997548E+2	3.87775000E-1	2.21435481E+0
4.76433060E+2	3.87907200E-1	2.21438986E+0
4.76314498E+2	3.87856600E-1	2.21437193E+0
4.76498038E+2	3.87701200E-1	2.21434514E+0
4.76278340E+2	3.87895500E-1	2.21437631E+0
4.75803305E+2	3.87708900E-1	2.21438905E+0
4.75964015E+2	3.87813900E-1	2.21438042E+0
4.76560067E+2	3.87899400E-1	2.21435703E+0
4.76100498E+2	3.87880000E-1	2.21438494E+0
4.76037773E+2	3.87775000E-1	2.21440412E+0
4.76000128E+2	3.87751700E-1	2.21441897E+0
4.75516243E+2	3.87650600E-1	2.21440122E+0
4.76205597E+2	3.87724500E-1	2.21443400E+0
4.75874967E+2	3.87899400E-1	2.21449893E+0
4.75753118E+2	3.87767200E-1	2.21443963E+0
4.75816969E+2	3.87728400E-1	2.21439791E+0
4.76239840E+2	3.87856600E-1	2.21443529E+0
4.76168153E+2	3.87771100E-1	2.21445291E+0
4.75735151E+2	3.87724500E-1	2.21444589E+0
4.75162558E+2	3.87720600E-1	2.21445645E+0
4.75552422E+2	3.87841100E-1	2.21444817E+0
4.76097412E+2	3.87903300E-1	2.21446177E+0
4.76704497E+2	3.87697300E-1	2.21446780E+0
4.77000204E+2	3.87817800E-1	2.21446284E+0
4.77107599E+2	3.87755600E-1	2.21441772E+0
4.77368364E+2	3.87716700E-1	2.21441092E+0
4.77345354E+2	3.87720600E-1	2.21442273E+0
4.76948916E+2	3.87767200E-1	2.21439799E+0
4.76782416E+2	3.87743900E-1	2.21441449E+0
4.76931238E+2	3.87751700E-1	2.21438435E+0
4.77065245E+2	3.87701200E-1	2.21440836E+0
4.78038598E+2	3.87895500E-1	2.21440497E+0
4.79068283E+2	3.87833300E-1	2.21440962E+0
4.80256291E+2	3.87732300E-1	2.21442254E+0
4.80931460E+2	3.87876100E-1	2.21441525E+0
4.81525802E+2	3.87701200E-1	2.21443063E+0
4.82534683E+2	3.87712800E-1	2.21441020E+0
4.83712514E+2	3.87747800E-1	2.21440796E+0
4.84573744E+2	3.87751700E-1	2.21442563E+0
4.85484371E+2	3.87747800E-1	2.21442428E+0
4.86829126E+2	3.87767200E-1	2.21443327E+0
4.87803064E+2	3.87736200E-1	2.21441637E+0
4.88755929E+2	3.87864400E-1	2.21439401E+0
4.90262115E+2	3.87864400E-1	2.21438171E+0
4.90904908E+2	3.87716700E-1	2.21442245E+0
4.91673198E+2	3.87883900E-1	2.21441247E+0
4.92652045E+2	3.87868300E-1	2.21438944E+0
4.95194445E+2	3.87740000E-1	2.21437933E+0
4.95431254E+2	3.87759500E-1	2.21439548E+0
4.96646325E+2	3.87724500E-1	2.21439306E+0
4.97984340E+2	3.87852800E-1	2.21433944E+0
4.99799568E+2	3.87728400E-1	2.21440543E+0
5.00918186E+2	3.87806100E-1	2.21441239E+0
5.02355116E+2	3.87864400E-1	2.21440872E+0
5.03776331E+2	3.87755600E-1	2.21439392E+0
5.05187550E+2	3.87685600E-1	2.21440716E+0
5.07409071E+2	3.87689500E-1	2.21444351E+0
5.08059924E+2	3.87813900E-1	2.21444253E+0
5.09921256E+2	3.87720600E-1	2.21443086E+0
5.10696300E+2	3.87802200E-1	2.21447294E+0
5.11752147E+2	3.87903300E-1	2.21446256E+0
5.12938174E+2	3.87716700E-1	2.21445519E+0
5.14374204E+2	3.87771100E-1	2.21443922E+0
5.16670248E+2	3.87817800E-1	2.21443810E+0
5.18075118E+2	3.87736200E-1	2.21441691E+0
5.20183966E+2	3.87880000E-1	2.21444879E+0
5.21772609E+2	3.87740000E-1	2.21445496E+0
5.22660047E+2	3.87880000E-1	2.21444825E+0
5.24135973E+2	3.87751700E-1	2.21445080E+0
5.25938496E+2	3.87763400E-1	2.21445993E+0
5.27759526E+2	3.87903300E-1	2.21446910E+0
5.29044212E+2	3.87728400E-1	2.21445276E+0
5.30215605E+2	3.87786700E-1	2.21444337E+0
5.32227745E+2	3.87771100E-1	2.21445902E+0
5.33758742E+2	3.87708900E-1	2.21441395E+0
5.35029380E+2	3.87720600E-1	2.21441189E+0
5.36477793E+2	3.87728400E-1	2.21441390E+0
5.37940121E+2	3.87790600E-1	2.21436453E+0
5.39631152E+2	3.87833300E-1	2.21434588E+0
5.41097623E+2	3.87743900E-1	2.21441265E+0
5.44235060E+2	3.87841100E-1	2.21438318E+0
5.46599510E+2	3.87876100E-1	2.21435085E+0
5.46608741E+2	3.87845000E-1	2.21433786E+0
5.47626584E+2	3.87712800E-1	2.21434969E+0
5.49755661E+2	3.87876100E-1	2.21435600E+0
5.51558185E+2	3.87852800E-1	2.21435094E+0
5.53691360E+2	3.87670100E-1	2.21434665E+0
5.55319868E+2	3.87724500E-1	2.21434714E+0
5.57084504E+2	3.87639000E-1	2.21435989E+0
5.58344741E+2	3.87728400E-1	2.21429660E+0
5.60522090E+2	3.87728400E-1	2.21429580E+0
5.63741508E+2	3.87716700E-1	2.21429790E+0
5.65328073E+2	3.87724500E-1	2.21431248E+0
5.67281491E+2	3.87685600E-1	2.21427791E+0
5.68352829E+2	3.87767200E-1	2.21428091E+0
5.69788365E+2	3.87755600E-1	2.21423147E+0
5.70855290E+2	3.87701200E-1	2.21427680E+0
5.71867730E+2	3.87736200E-1	2.21427085E+0
5.73999375E+2	3.87740000E-1	2.21432362E+0
5.75407983E+2	3.87848900E-1	2.21430623E+0
5.77256663E+2	3.87716700E-1	2.21426566E+0
5.78396311E+2	3.87778900E-1	2.21427148E+0
5.80848526E+2	3.87825600E-1	2.21428646E+0
5.82573586E+2	3.87693400E-1	2.21424626E+0
5.83301395E+2	3.87705100E-1	2.21425502E+0
5.85506977E+2	3.87755600E-1	2.21421866E+0
5.87186616E+2	3.87708900E-1	2.21425542E+0
5.88768541E+2	3.87716700E-1	2.21425730E+0
5.90413553E+2	3.87681700E-1	2.21422770E+0
5.92350624E+2	3.87868300E-1	2.21422935E+0
5.93979899E+2	3.87841100E-1	2.21417989E+0
5.96037742E+2	3.87740000E-1	2.21418329E+0
5.98772958E+2	3.87845000E-1	2.21417175E+0
6.00397527E+2	3.87790600E-1	2.21417502E+0
6.02565329E+2	3.87662300E-1	2.21415874E+0
6.05091609E+2	3.87697300E-1	2.21418682E+0
6.07175882E+2	3.87716700E-1	2.21416124E+0
6.09208533E+2	3.87712800E-1	2.21417135E+0
6.10974440E+2	3.87825600E-1	2.21416581E+0
6.12860674E+2	3.87666200E-1	2.21418338E+0
6.15497231E+2	3.87697300E-1	2.21416481E+0
6.18529731E+2	3.87646800E-1	2.21417367E+0
6.19890427E+2	3.87732300E-1	2.21417944E+0
6.20356526E+2	3.87845000E-1	2.21420524E+0
6.22140127E+2	3.87813900E-1	2.21411334E+0
6.24333224E+2	3.87833300E-1	2.21413172E+0
6.25457200E+2	3.87868300E-1	2.21418042E+0
6.28004193E+2	3.87751700E-1	2.21415824E+0
6.30149659E+2	3.87813900E-1	2.21412072E+0
6.32571110E+2	3.87716700E-1	2.21414362E+0
6.33597463E+2	3.87736200E-1	2.21414854E+0
6.36162918E+2	3.87712800E-1	2.21420591E+0
6.40444104E+2	3.87708900E-1	2.21412801E+0
6.40968875E+2	3.87639000E-1	2.21416016E+0
6.43284778E+2	3.87895500E-1	2.21416870E+0
6.44240841E+2	3.87670100E-1	2.21418015E+0
6.47570624E+2	3.87740000E-1	2.21413745E+0
6.50308903E+2	3.87868300E-1	2.21411951E+0
6.53306595E+2	3.87662300E-1	2.21414152E+0
6.53703432E+2	3.87716700E-1	2.21415153E+0
6.56200511E+2	3.87841100E-1	2.21416696E+0
6.59033125E+2	3.87681700E-1	2.21417318E+0
6.62257135E+2	3.87705100E-1	2.21416857E+0
6.62350255E+2	3.87705100E-1	2.21410619E+0
6.63907639E+2	3.87642900E-1	2.21414205E+0
6.68462580E+2	3.87848900E-1	2.21417988E+0
6.68929039E+2	3.87868300E-1	2.21415162E+0
6.71165127E+2	3.87666200E-1	2.21412743E+0
6.73469857E+2	3.87829400E-1	2.21413937E+0
6.75387250E+2	3.87666200E-1	2.21411571E+0
6.77985487E+2	3.87740000E-1	2.21412805E+0
6.80444583E+2	3.87821700E-1	2.21414702E+0
6.82413355E+2	3.87654500E-1	2.21415851E+0
6.84752043E+2	3.87677900E-1	2.21414084E+0
6.89291764E+2	3.87677900E-1	2.21413056E+0
6.89491739E+2	3.87681700E-1	2.21417009E+0
6.91326278E+2	3.87868300E-1	2.21415489E+0
6.94201175E+2	3.87712800E-1	2.21415864E+0
6.96063047E+2	3.87751700E-1	2.21415911E+0
6.98654800E+2	3.87848900E-1	2.21415114E+0
7.00780229E+2	3.87646800E-1	2.21412766E+0
7.03722580E+2	3.87705100E-1	2.21413406E+0
7.04322192E+2	3.87724500E-1	2.21412422E+0
7.06766180E+2	3.87693400E-1	2.21411071E+0
7.08846263E+2	3.87841100E-1	2.21416347E+0
7.10421748E+2	3.87872200E-1	2.20952145E+0
7.12616972E+2	3.87852800E-1	2.13461668E+0
7.15978994E+2	3.87848900E-1	2.12593037E+0
7.18762570E+2	3.87728400E-1	2.11985142E+0
7.19734879E+2	3.87763400E-1	2.11707447E+0
7.21985691E+2	3.87880000E-1	2.11354646E+0
7.25276252E+2	3.87759500E-1	2.11048577E+0
7.27728503E+2	3.87794400E-1	2.10714920E+0
7.30322730E+2	3.87747800E-1	2.10466307E+0
7.33282011E+2	3.87813900E-1	2.10040277E+0
7.34685664E+2	3.87833300E-1	2.09646053E+0
7.37501571E+2	3.87701200E-1	2.09363220E+0
7.39534702E+2	3.87697300E-1	2.08989615E+0
7.41579752E+2	3.87845000E-1	2.08676426E+0
7.44128635E+2	3.87759500E-1	2.08331898E+0
7.46851377E+2	3.87786700E-1	2.08052849E+0
7.50139596E+2	3.87728400E-1	2.07810062E+0
7.53416738E+2	3.87802200E-1	2.07576537E+0
7.55788160E+2	3.87631200E-1	2.07407600E+0
7.57207329E+2	3.87841100E-1	2.07246082E+0
7.60278866E+2	3.87712800E-1	2.07124717E+0
7.61752000E+2	3.87607900E-1	2.06997589E+0
7.64146837E+2	3.87833300E-1	2.06872459E+0
7.66260827E+2	3.87658400E-1	2.06705866E+0
7.68901705E+2	3.87794400E-1	2.06588598E+0
7.71115975E+2	3.87732300E-1	2.06446980E+0
7.72991670E+2	3.87658400E-1	2.06294885E+0
7.79373627E+2	3.87802200E-1	2.06141023E+0
7.79914069E+2	3.87674000E-1	2.05927509E+0
7.82137165E+2	3.87708900E-1	2.05766188E+0
7.85105362E+2	3.87848900E-1	2.05607206E+0
7.87389969E+2	3.87848900E-1	2.05434302E+0
7.90334435E+2	3.87728400E-1	2.05298055E+0
7.92722474E+2	3.87829400E-1	2.05094170E+0
7.95949864E+2	3.87848900E-1	2.04926177E+0
7.97960856E+2	3.87821700E-1	2.04785051E+0
7.99981005E+2	3.87712800E-1	2.04668758E+0
8.03209066E+2	3.87674000E-1	2.04584623E+0
8.05663298E+2	3.87845000E-1	2.04547098E+0
8.06508182E+2	3.87693400E-1	2.04483234E+0
8.08451422E+2	3.87751700E-1	2.04432912E+0
8.10987517E+2	3.87697300E-1	2.04364992E+0
8.13987659E+2	3.87701200E-1	2.04298758E+0
8.16809195E+2	3.87701200E-1	2.04187393E+0
8.18552594E+2	3.87708900E-1	2.04086912E+0
8.21066264E+2	3.87705100E-1	2.03988418E+0
8.24403926E+2	3.87681700E-1	2.03858413E+0
8.26829654E+2	3.87708900E-1	2.03751596E+0
8.28921625E+2	3.87837200E-1	2.03630921E+0
8.31845872E+2	3.87759500E-1	2.03538043E+0
8.34203876E+2	3.87868300E-1	2.03428802E+0
8.36548462E+2	3.87806100E-1	2.03322575E+0
8.38828520E+2	3.87720600E-1	2.03252683E+0
8.41394965E+2	3.87848900E-1	2.03137213E+0
8.43414214E+2	3.87755600E-1	2.03054647E+0
8.46004209E+2	3.87817800E-1	2.02971344E+0
8.48745727E+2	3.87740000E-1	2.02895907E+0
8.51493145E+2	3.87639000E-1	2.02832950E+0
8.53970161E+2	3.87705100E-1	2.02695724E+0
8.57058495E+2	3.87708900E-1	2.02591541E+0
8.60237023E+2	3.87693400E-1	2.02555372E+0
8.62971698E+2	3.87833300E-1	2.02511475E+0
8.64603604E+2	3.87837200E-1	2.02446575E+0
8.67223634E+2	3.87778900E-1	2.02402967E+0
8.70442086E+2	3.87813900E-1	2.02357953E+0
8.72962332E+2	3.87790600E-1	2.02316395E+0
8.75557055E+2	3.87701200E-1	2.02278079E+0
8.77914339E+2	3.87670100E-1	2.02249714E+0
8.80784643E+2	3.87674000E-1	2.02229684E+0
8.83637789E+2	3.87883900E-1	2.02212793E+0
8.86631338E+2	3.87821700E-1	2.02174652E+0
8.88907768E+2	3.87794400E-1	2.02136077E+0
8.91348209E+2	3.87829400E-1	2.02122750E+0
8.94266063E+2	3.87860500E-1	2.02119477E+0
8.96876322E+2	3.87654500E-1	2.02091420E+0
8.99753740E+2	3.87876100E-1	2.02082543E+0
9.02342970E+2	3.87674000E-1	2.02059839E+0
9.05057651E+2	3.87689500E-1	2.02047353E+0
9.07733664E+2	3.87701200E-1	2.02033530E+0
9.10554572E+2	3.87697300E-1	2.02009896E+0
9.12402665E+2	3.87732300E-1	2.01976884E+0
9.14590504E+2	3.87845000E-1	2.01966236E+0
9.16849219E+2	3.87697300E-1	2.01868631E+0
9.19146299E+2	3.87701200E-1	2.01767467E+0
9.21516462E+2	3.87724500E-1	2.01714045E+0
9.23749960E+2	3.87775000E-1	2.01675890E+0
9.25884691E+2	3.87716700E-1	2.01626551E+0
9.28704095E+2	3.87829400E-1	2.01585403E+0
9.31508520E+2	3.87817800E-1	2.01541764E+0
9.34128235E+2	3.87899400E-1	2.01514279E+0
9.36662124E+2	3.87778900E-1	2.01483311E+0
9.39451824E+2	3.87732300E-1	2.01455687E+0
9.41989495E+2	3.87720600E-1	2.01425064E+0
9.43931180E+2	3.87802200E-1	2.01338685E+0
9.46292549E+2	3.87724500E-1	2.01277238E+0
9.48446751E+2	3.87841100E-1	2.01202257E+0
9.51028011E+2	3.87677900E-1	2.01182106E+0
9.53440275E+2	3.87697300E-1	2.01156057E+0
9.55598620E+2	3.87720600E-1	2.01110077E+0
9.58130977E+2	3.87790600E-1	2.01104809E+0
9.60825621E+2	3.87868300E-1	2.01082619E+0
9.63355813E+2	3.87689500E-1	2.01044321E+0
9.65729893E+2	3.87786700E-1	2.00987657E+0
9.67954071E+2	3.87876100E-1	2.00976871E+0
9.70260336E+2	3.87674000E-1	2.00972282E+0
9.72636353E+2	3.87716700E-1	2.00952981E+0
9.74883270E+2	3.87860500E-1	2.00934570E+0
9.77096550E+2	3.87685600E-1	2.00931020E+0
9.79440115E+2	3.87705100E-1	2.00917599E+0
9.81618800E+2	3.87837200E-1	2.00882566E+0
9.83462795E+2	3.87778900E-1	2.00863542E+0
9.85499335E+2	3.87701200E-1	2.00853436E+0
9.87712345E+2	3.87728400E-1	2.00846048E+0
9.89940170E+2	3.87845000E-1	2.00837780E+0
9.92167139E+2	3.87697300E-1	2.00826644E+0
9.94357178E+2	3.87841100E-1	2.00808962E+0
9.96623400E+2	3.87697300E-1	2.00783034E+0
9.98587264E+2	3.87891600E-1	2.00774841E+0
1.00065154E+3	3.87856600E-1	2.00763652E+0
1.00283704E+3	3.87747800E-1	2.00756372E+0
1.00504064E+3	3.87747800E-1	2.00745148E+0
1.00680390E+3	3.87786700E-1	2.00736865E+0
1.00915497E+3	3.87883900E-1	2.00731919E+0
1.01098623E+3	3.87716700E-1	2.00732505E+0
1.01306307E+3	3.87724500E-1	2.00723526E+0
1.01505201E+3	3.87705100E-1	2.00721151E+0
1.01705550E+3	3.87821700E-1	2.00718043E+0
1.01873725E+3	3.87677900E-1	2.00720632E+0
1.02072336E+3	3.87751700E-1	2.00717390E+0
1.02259316E+3	3.87860500E-1	2.00713911E+0
1.02444576E+3	3.87724500E-1	2.00713240E+0
1.02640106E+3	3.87918800E-1	2.00707337E+0
1.02831557E+3	3.87681700E-1	2.00697280E+0
1.03011481E+3	3.87872200E-1	2.00688300E+0
1.03191864E+3	3.87685600E-1	2.00675694E+0
1.03364074E+3	3.87763400E-1	2.00673283E+0
1.03542588E+3	3.87876100E-1	2.00666665E+0
1.03726182E+3	3.87876100E-1	2.00664500E+0
1.03885149E+3	3.87697300E-1	2.00659863E+0
1.04049857E+3	3.87825600E-1	2.00659349E+0
1.04210878E+3	3.87845000E-1	2.00656706E+0
1.04370539E+3	3.87654500E-1	2.00656048E+0
1.04548531E+3	3.87755600E-1	2.00659241E+0
1.04706250E+3	3.87712800E-1	2.00654555E+0
1.04858274E+3	3.87821700E-1	2.00647734E+0
1.05024264E+3	3.87728400E-1	2.00647189E+0
1.05161385E+3	3.87716700E-1	2.00644264E+0
1.05318600E+3	3.87728400E-1	2.00646111E+0
1.05463414E+3	3.87864400E-1	2.00644322E+0
1.05606076E+3	3.87697300E-1	2.00644072E+0
1.05747032E+3	3.87907200E-1	2.00647144E+0
1.05891927E+3	3.87712800E-1	2.00648983E+0
1.06025637E+3	3.87677900E-1	2.00646004E+0
1.06162472E+3	3.87736200E-1	2.00637369E+0
1.06289698E+3	3.87868300E-1	2.00642042E+0
1.06421328E+3	3.87724500E-1	2.00645611E+0
1.06543020E+3	3.87755600E-1	2.00638930E+0
1.06662393E+3	3.87724500E-1	2.00630357E+0
1.06789488E+3	3.87654500E-1	2.00629704E+0
1.06891074E+3	3.87864400E-1	2.00621409E+0
1.07009047E+3	3.87817800E-1	2.00604836E+0
1.07109516E+3	3.87833300E-1	2.00601160E+0
1.07225183E+3	3.87868300E-1	2.00602828E+0
1.07321523E+3	3.87705100E-1	2.00605095E+0
1.07425028E+3	3.87747800E-1	2.00598128E+0
1.07521963E+3	3.87817800E-1	2.00587284E+0
1.07621234E+3	3.87798300E-1	2.00584296E+0
1.07703561E+3	3.87860500E-1	2.00579435E+0
1.07800191E+3	3.87817800E-1	2.00580652E+0
1.07885751E+3	3.87771100E-1	2.00582454E+0
1.07963531E+3	3.87771100E-1	2.00578349E+0
1.08043872E+3	3.87829400E-1	2.00578823E+0
1.08120124E+3	3.87829400E-1	2.00576694E+0
1.08186381E+3	3.87736200E-1	2.00573944E+0
1.08255181E+3	3.87763400E-1	2.00569776E+0
1.08321603E+3	3.87693400E-1	2.00570741E+0
1.08378806E+3	3.87813900E-1	2.00569860E+0
1.08436592E+3	3.87666200E-1	2.00566158E+0
1.08487921E+3	3.87743900E-1	2.00563161E+0
1.08539057E+3	3.87794400E-1	2.00563260E+0
1.08581965E+3	3.87825600E-1	2.00564306E+0
1.08627751E+3	3.87825600E-1	2.00560216E+0
1.08653962E+3	3.87743900E-1	2.00560389E+0
1.08678052E+3	3.87712800E-1	2.00560769E+0
1.08703427E+3	3.87724500E-1	2.00563359E+0
1.08724884E+3	3.87876100E-1	2.00564459E+0
1.08768697E+3	3.87689500E-1	2.00562661E+0
1.08771840E+3	3.87693400E-1	2.00562898E+0
1.08806378E+3	3.87856600E-1	2.00565635E+0
1.08809115E+3	3.87841100E-1	2.00565487E+0
1.08825781E+3	3.87794400E-1	2.00564682E+0
1.08844193E+3	3.87693400E-1	2.00562227E+0
1.08859359E+3	3.87743900E-1	2.00563475E+0
1.08879560E+3	3.87747800E-1	2.00557501E+0
1.08894533E+3	3.87794400E-1	2.00562192E+0
1.08908925E+3	3.87751700E-1	2.00559330E+0
1.08918687E+3	3.87662300E-1	2.00558712E+0
1.08949717E+3	3.87708900E-1	2.00561141E+0
1.08953292E+3	3.87705100E-1	2.00559312E+0
1.08967040E+3	3.87693400E-1	2.00563014E+0
1.08978270E+3	3.87856600E-1	2.00567334E+0
1.08989347E+3	3.87708900E-1	2.00567008E+0
1.09001046E+3	3.87825600E-1	2.00568354E+0
1.09012736E+3	3.87724500E-1	2.00565161E+0
1.09026153E+3	3.87708900E-1	2.00567003E+0
1.09034922E+3	3.87740000E-1	2.00565742E+0
1.09043788E+3	3.87646800E-1	2.00566011E+0
1.09051461E+3	3.87794400E-1	2.00565197E+0
